title:2                                                                               , recorded:28.05.26 13.58.05, sampling:256, subject:1                                                                               , labels:COUNTER INTERPOLATED AF3 F7 F3 FC5 T7 P7 O1 O2 P8 T8 FC6 F4 F8 AF4 RAW_CQ GYROX GYROY MARKER MARKER_HARDWARE SYNC TIME_STAMP_s TIME_STAMP_ms CQ_AF3 CQ_F7 CQ_F3 CQ_FC5 CQ_T7 CQ_P7 CQ_O1 CQ_O2 CQ_P8 CQ_T8 CQ_FC6 CQ_F4 CQ_F8 CQ_AF4 CQ_CMS CQ_DRL, chan:40, units:emotiv
241.00000000000000000000, 0.00000000000000000000, 4206.15380859375000000000, 4517.94873046875000000000, 4197.43603515625000000000, 4175.38427734375000000000, 4128.71777343750000000000, 4149.23046875000000000000, 4177.94873046875000000000, 4176.41015625000000000000, 4153.33300781250000000000, 4153.33300781250000000000, 4162.05126953125000000000, 4403.07666015625000000000, 5043.58984375000000000000, 4156.92285156250000000000, 0.00000000000000000000, 10262.00000000000000000000, 10138.00000000000000000000, 0.00000000000000000000, 0.00000000000000000000, 0.00000000000000000000, 1483.00000000000000000000, 537.00000000000000000000, 0.00000000000000000000, 0.00000000000000000000, 0.00000000000000000000, 0.00000000000000000000, 0.00000000000000000000, 0.00000000000000000000, 0.00000000000000000000, 0.00000000000000000000, 0.00000000000000000000, 0.00000000000000000000, 0.00000000000000000000, 0.00000000000000000000, 0.00000000000000000000, 0.00000000000000000000, 0.00000000000000000000, 0.00000000000000000000
242.00000000000000000000, 0.00000000000000000000, 4211.79492187500000000000, 4527.69238281250000000000, 4200.51269531250000000000, 4173.84619140625000000000, 4140.51269531250000000000, 4148.20507812500000000000, 4187.17919921875000000000, 4182.05126953125000000000, 4156.41015625000000000000, 4152.30761718750000000000, 4158.97412109375000000000, 4400.51269531250000000000, 5100.51269531250000000000, 4170.76904296875000000000, 3193.00000000000000000000, 10262.00000000000000000000, 10138.00000000000000000000, 0.00000000000000000000, 0.00000000000000000000, 0.00000000000000000000, 1483.00000000000000000000, 543.00000000000000000000, 0.00000000000000000000, 0.00000000000000000000, 0.00000000000000000000, 0.00000000000000000000, 0.00000000000000000000, 0.00000000000000000000, 0.00000000000000000000, 0.00000000000000000000, 0.00000000000000000000, 0.00000000000000000000, 0.00000000000000000000, 0.00000000000000000000, 0.00000000000000000000, 0.00000000000000000000, 0.00000000000000000000, 0.00000000000000000000
243.00000000000000000000, 0.00000000000000000000, 4217.43603515625000000000, 4537.43554687500000000000, 4202.56396484375000000000, 4174.35888671875000000000, 4155.38427734375000000000, 4148.71777343750000000000, 4198.97412109375000000000, 4191.28173828125000000000, 4160.51269531250000000000, 4151.79492187500000000000, 4156.41015625000000000000, 4401.02539062500000000000, 5150.25634765625000000000, 4181.53857421875000000000, 3246.00000000000000000000, 10262.00000000000000000000, 10138.00000000000000000000, 0.00000000000000000000, 0.00000000000000000000, 0.00000000000000000000, 1483.00000000000000000000, 549.00000000000000000000, 0.00000000000000000000, 0.00000000000000000000, 0.00000000000000000000, 0.00000000000000000000, 0.00000000000000000000, 0.00000000000000000000, 0.00000000000000000000, 0.00000000000000000000, 0.00000000000000000000, 0.00000000000000000000, 0.00000000000000000000, 0.00000000000000000000, 0.00000000000000000000, 0.00000000000000000000, 0.00000000000000000000, 0.00000000000000000000
244.00000000000000000000, 0.00000000000000000000, 4220.00000000000000000000, 4548.20507812500000000000, 4202.05126953125000000000, 4176.41015625000000000000, 4167.17919921875000000000, 4150.76904296875000000000, 4208.20507812500000000000, 4200.51269531250000000000, 4162.56396484375000000000, 4152.30761718750000000000, 4157.43603515625000000000, 4403.58984375000000000000, 5188.71777343750000000000, 4182.56396484375000000000, 0.00000000000000000000, 10262.00000000000000000000, 10138.00000000000000000000, 0.00000000000000000000, 0.00000000000000000000, 0.00000000000000000000, 1483.00000000000000000000, 554.00000000000000000000, 0.00000000000000000000, 0.00000000000000000000, 0.00000000000000000000, 0.00000000000000000000, 0.00000000000000000000, 0.00000000000000000000, 0.00000000000000000000, 0.00000000000000000000, 0.00000000000000000000, 0.00000000000000000000, 0.00000000000000000000, 0.00000000000000000000, 0.00000000000000000000, 0.00000000000000000000, 0.00000000000000000000, 0.00000000000000000000
245.00000000000000000000, 0.00000000000000000000, 4221.02539062500000000000, 4560.00000000000000000000, 4201.02539062500000000000, 4176.92285156250000000000, 4172.30761718750000000000, 4150.76904296875000000000, 4211.79492187500000000000, 4206.66650390625000000000, 4160.51269531250000000000, 4153.33300781250000000000, 4160.00000000000000000000, 4405.64111328125000000000, 5221.02539062500000000000, 4176.41015625000000000000, 0.00000000000000000000, 10248.00000000000000000000, 10126.00000000000000000000, 0.00000000000000000000, 0.00000000000000000000, 0.00000000000000000000, 1483.00000000000000000000, 560.00000000000000000000, 0.00000000000000000000, 0.00000000000000000000, 0.00000000000000000000, 0.00000000000000000000, 0.00000000000000000000, 0.00000000000000000000, 0.00000000000000000000, 0.00000000000000000000, 0.00000000000000000000, 0.00000000000000000000, 0.00000000000000000000, 0.00000000000000000000, 0.00000000000000000000, 0.00000000000000000000, 0.00000000000000000000, 0.00000000000000000000
246.00000000000000000000, 0.00000000000000000000, 4222.56396484375000000000, 4572.30761718750000000000, 4202.05126953125000000000, 4176.41015625000000000000, 4168.20507812500000000000, 4148.71777343750000000000, 4210.76904296875000000000, 4208.71777343750000000000, 4155.38427734375000000000, 4154.35888671875000000000, 4162.56396484375000000000, 4406.66650390625000000000, 5251.79492187500000000000, 4171.28173828125000000000, 3193.00000000000000000000, 10248.00000000000000000000, 10126.00000000000000000000, 0.00000000000000000000, 0.00000000000000000000, 0.00000000000000000000, 1483.00000000000000000000, 566.00000000000000000000, 0.00000000000000000000, 0.00000000000000000000, 0.00000000000000000000, 0.00000000000000000000, 0.00000000000000000000, 0.00000000000000000000, 0.00000000000000000000, 0.00000000000000000000, 0.00000000000000000000, 0.00000000000000000000, 0.00000000000000000000, 0.00000000000000000000, 0.00000000000000000000, 0.00000000000000000000, 0.00000000000000000000, 0.00000000000000000000
247.00000000000000000000, 0.00000000000000000000, 4223.58984375000000000000, 4582.56396484375000000000, 4203.58984375000000000000, 4175.89746093750000000000, 4156.41015625000000000000, 4146.66650390625000000000, 4206.15380859375000000000, 4205.64111328125000000000, 4151.28173828125000000000, 4154.87158203125000000000, 4163.58984375000000000000, 4407.17919921875000000000, 5278.97412109375000000000, 4168.71777343750000000000, 3246.00000000000000000000, 10248.00000000000000000000, 10126.00000000000000000000, 0.00000000000000000000, 0.00000000000000000000, 0.00000000000000000000, 1483.00000000000000000000, 571.00000000000000000000, 0.00000000000000000000, 0.00000000000000000000, 0.00000000000000000000, 0.00000000000000000000, 0.00000000000000000000, 0.00000000000000000000, 0.00000000000000000000, 0.00000000000000000000, 0.00000000000000000000, 0.00000000000000000000, 0.00000000000000000000, 0.00000000000000000000, 0.00000000000000000000, 0.00000000000000000000, 0.00000000000000000000, 0.00000000000000000000
248.00000000000000000000, 0.00000000000000000000, 4222.56396484375000000000, 4591.28173828125000000000, 4204.10253906250000000000, 4176.92285156250000000000, 4143.07666015625000000000, 4146.15380859375000000000, 4200.51269531250000000000, 4200.00000000000000000000, 4149.74365234375000000000, 4153.84619140625000000000, 4163.07666015625000000000, 4408.20507812500000000000, 5298.46142578125000000000, 4166.15380859375000000000, 0.00000000000000000000, 10248.00000000000000000000, 10126.00000000000000000000, 0.00000000000000000000, 0.00000000000000000000, 0.00000000000000000000, 1483.00000000000000000000, 577.00000000000000000000, 0.00000000000000000000, 0.00000000000000000000, 0.00000000000000000000, 0.00000000000000000000, 0.00000000000000000000, 0.00000000000000000000, 0.00000000000000000000, 0.00000000000000000000, 0.00000000000000000000, 0.00000000000000000000, 0.00000000000000000000, 0.00000000000000000000, 0.00000000000000000000, 0.00000000000000000000, 0.00000000000000000000, 0.00000000000000000000
249.00000000000000000000, 0.00000000000000000000, 4219.48730468750000000000, 4597.94873046875000000000, 4203.58984375000000000000, 4178.97412109375000000000, 4137.94873046875000000000, 4147.17919921875000000000, 4197.43603515625000000000, 4196.92285156250000000000, 4151.79492187500000000000, 4152.82031250000000000000, 4162.05126953125000000000, 4408.20507812500000000000, 5311.79492187500000000000, 4163.58984375000000000000, 0.00000000000000000000, 10242.00000000000000000000, 10126.00000000000000000000, 0.00000000000000000000, 0.00000000000000000000, 0.00000000000000000000, 1483.00000000000000000000, 583.00000000000000000000, 0.00000000000000000000, 0.00000000000000000000, 0.00000000000000000000, 0.00000000000000000000, 0.00000000000000000000, 0.00000000000000000000, 0.00000000000000000000, 0.00000000000000000000, 0.00000000000000000000, 0.00000000000000000000, 0.00000000000000000000, 0.00000000000000000000, 0.00000000000000000000, 0.00000000000000000000, 0.00000000000000000000, 0.00000000000000000000
250.00000000000000000000, 0.00000000000000000000, 4217.94873046875000000000, 4605.12792968750000000000, 4204.61523437500000000000, 4178.97412109375000000000, 4145.64111328125000000000, 4148.20507812500000000000, 4200.51269531250000000000, 4200.51269531250000000000, 4154.87158203125000000000, 4152.82031250000000000000, 4161.02539062500000000000, 4405.64111328125000000000, 5325.64111328125000000000, 4164.61523437500000000000, 3193.00000000000000000000, 10242.00000000000000000000, 10126.00000000000000000000, 0.00000000000000000000, 0.00000000000000000000, 0.00000000000000000000, 1483.00000000000000000000, 588.00000000000000000000, 0.00000000000000000000, 0.00000000000000000000, 0.00000000000000000000, 0.00000000000000000000, 0.00000000000000000000, 0.00000000000000000000, 0.00000000000000000000, 0.00000000000000000000, 0.00000000000000000000, 0.00000000000000000000, 0.00000000000000000000, 0.00000000000000000000, 0.00000000000000000000, 0.00000000000000000000, 0.00000000000000000000, 0.00000000000000000000
251.00000000000000000000, 0.00000000000000000000, 4220.51269531250000000000, 4613.84619140625000000000, 4207.69238281250000000000, 4177.43603515625000000000, 4160.51269531250000000000, 4147.69238281250000000000, 4207.69238281250000000000, 4209.23046875000000000000, 4156.92285156250000000000, 4152.82031250000000000000, 4161.02539062500000000000, 4402.05126953125000000000, 5342.56396484375000000000, 4172.30761718750000000000, 3246.00000000000000000000, 10242.00000000000000000000, 10126.00000000000000000000, 0.00000000000000000000, 0.00000000000000000000, 0.00000000000000000000, 1483.00000000000000000000, 594.00000000000000000000, 0.00000000000000000000, 0.00000000000000000000, 0.00000000000000000000, 0.00000000000000000000, 0.00000000000000000000, 0.00000000000000000000, 0.00000000000000000000, 0.00000000000000000000, 0.00000000000000000000, 0.00000000000000000000, 0.00000000000000000000, 0.00000000000000000000, 0.00000000000000000000, 0.00000000000000000000, 0.00000000000000000000, 0.00000000000000000000
252.00000000000000000000, 0.00000000000000000000, 4223.58984375000000000000, 4622.05126953125000000000, 4211.79492187500000000000, 4176.41015625000000000000, 4170.25634765625000000000, 4147.17919921875000000000, 4211.28173828125000000000, 4216.41015625000000000000, 4156.92285156250000000000, 4153.33300781250000000000, 4162.56396484375000000000, 4398.97412109375000000000, 5357.43554687500000000000, 4183.58984375000000000000, 0.00000000000000000000, 10242.00000000000000000000, 10126.00000000000000000000, 0.00000000000000000000, 0.00000000000000000000, 0.00000000000000000000, 1483.00000000000000000000, 600.00000000000000000000, 0.00000000000000000000, 0.00000000000000000000, 0.00000000000000000000, 0.00000000000000000000, 0.00000000000000000000, 0.00000000000000000000, 0.00000000000000000000, 0.00000000000000000000, 0.00000000000000000000, 0.00000000000000000000, 0.00000000000000000000, 0.00000000000000000000, 0.00000000000000000000, 0.00000000000000000000, 0.00000000000000000000, 0.00000000000000000000
253.00000000000000000000, 0.00000000000000000000, 4222.05126953125000000000, 4629.74365234375000000000, 4212.82031250000000000000, 4177.43603515625000000000, 4167.17919921875000000000, 4148.20507812500000000000, 4207.69238281250000000000, 4214.87158203125000000000, 4154.87158203125000000000, 4153.33300781250000000000, 4164.61523437500000000000, 4397.43554687500000000000, 5362.05126953125000000000, 4190.76904296875000000000, 0.00000000000000000000, 10233.00000000000000000000, 10131.00000000000000000000, 0.00000000000000000000, 0.00000000000000000000, 0.00000000000000000000, 1483.00000000000000000000, 605.00000000000000000000, 0.00000000000000000000, 0.00000000000000000000, 0.00000000000000000000, 0.00000000000000000000, 0.00000000000000000000, 0.00000000000000000000, 0.00000000000000000000, 0.00000000000000000000, 0.00000000000000000000, 0.00000000000000000000, 0.00000000000000000000, 0.00000000000000000000, 0.00000000000000000000, 0.00000000000000000000, 0.00000000000000000000, 0.00000000000000000000
254.00000000000000000000, 0.00000000000000000000, 4215.38427734375000000000, 4635.38427734375000000000, 4209.74365234375000000000, 4179.48730468750000000000, 4153.84619140625000000000, 4148.71777343750000000000, 4198.97412109375000000000, 4204.10253906250000000000, 4152.82031250000000000000, 4152.82031250000000000000, 4166.66650390625000000000, 4396.41015625000000000000, 5355.89746093750000000000, 4187.69238281250000000000, 3193.00000000000000000000, 10233.00000000000000000000, 10131.00000000000000000000, 0.00000000000000000000, 0.00000000000000000000, 0.00000000000000000000, 1483.00000000000000000000, 611.00000000000000000000, 0.00000000000000000000, 0.00000000000000000000, 0.00000000000000000000, 0.00000000000000000000, 0.00000000000000000000, 0.00000000000000000000, 0.00000000000000000000, 0.00000000000000000000, 0.00000000000000000000, 0.00000000000000000000, 0.00000000000000000000, 0.00000000000000000000, 0.00000000000000000000, 0.00000000000000000000, 0.00000000000000000000, 0.00000000000000000000
255.00000000000000000000, 0.00000000000000000000, 4206.66650390625000000000, 4641.53857421875000000000, 4203.58984375000000000000, 4181.02539062500000000000, 4142.56396484375000000000, 4148.20507812500000000000, 4191.79492187500000000000, 4192.30761718750000000000, 4152.30761718750000000000, 4152.82031250000000000000, 4166.15380859375000000000, 4393.84619140625000000000, 5349.23046875000000000000, 4177.43603515625000000000, 112.00000000000000000000, 10233.00000000000000000000, 10131.00000000000000000000, 0.00000000000000000000, 0.00000000000000000000, 0.00000000000000000000, 1483.00000000000000000000, 616.00000000000000000000, 0.00000000000000000000, 0.00000000000000000000, 0.00000000000000000000, 0.00000000000000000000, 0.00000000000000000000, 0.00000000000000000000, 0.00000000000000000000, 0.00000000000000000000, 0.00000000000000000000, 0.00000000000000000000, 0.00000000000000000000, 0.00000000000000000000, 0.00000000000000000000, 0.00000000000000000000, 0.00000000000000000000, 0.00000000000000000000
0.00000000000000000000, 0.00000000000000000000, 4201.53857421875000000000, 4649.74365234375000000000, 4197.43603515625000000000, 4180.00000000000000000000, 4141.02539062500000000000, 4146.15380859375000000000, 4191.28173828125000000000, 4185.12792968750000000000, 4154.35888671875000000000, 4152.82031250000000000000, 4163.58984375000000000000, 4390.25634765625000000000, 5351.28173828125000000000, 4166.15380859375000000000, 3075.00000000000000000000, 10233.00000000000000000000, 10131.00000000000000000000, 0.00000000000000000000, 0.00000000000000000000, 0.00000000000000000000, 1483.00000000000000000000, 622.00000000000000000000, 4.00000000000000000000, 0.00000000000000000000, 0.00000000000000000000, 0.00000000000000000000, 0.00000000000000000000, 0.00000000000000000000, 0.00000000000000000000, 0.00000000000000000000, 0.00000000000000000000, 0.00000000000000000000, 0.00000000000000000000, 0.00000000000000000000, 0.00000000000000000000, 0.00000000000000000000, 0.00000000000000000000, 0.00000000000000000000
1.00000000000000000000, 0.00000000000000000000, 4203.07666015625000000000, 4660.00000000000000000000, 4195.38427734375000000000, 4178.97412109375000000000, 4147.69238281250000000000, 4144.61523437500000000000, 4195.89746093750000000000, 4185.64111328125000000000, 4156.92285156250000000000, 4153.84619140625000000000, 4160.51269531250000000000, 4388.20507812500000000000, 5365.12792968750000000000, 4160.51269531250000000000, 0.00000000000000000000, 10222.00000000000000000000, 10142.00000000000000000000, 0.00000000000000000000, 0.00000000000000000000, 0.00000000000000000000, 1483.00000000000000000000, 628.00000000000000000000, 4.00000000000000000000, 0.00000000000000000000, 0.00000000000000000000, 0.00000000000000000000, 0.00000000000000000000, 0.00000000000000000000, 0.00000000000000000000, 0.00000000000000000000, 0.00000000000000000000, 0.00000000000000000000, 0.00000000000000000000, 0.00000000000000000000, 0.00000000000000000000, 0.00000000000000000000, 0.00000000000000000000, 0.00000000000000000000
2.00000000000000000000, 0.00000000000000000000, 4211.28173828125000000000, 4670.76904296875000000000, 4198.97412109375000000000, 4178.46142578125000000000, 4157.43603515625000000000, 4146.66650390625000000000, 4203.58984375000000000000, 4192.82031250000000000000, 4157.43603515625000000000, 4154.35888671875000000000, 4159.48730468750000000000, 4388.20507812500000000000, 5386.15380859375000000000, 4164.10253906250000000000, 3329.00000000000000000000, 10222.00000000000000000000, 10142.00000000000000000000, 0.00000000000000000000, 0.00000000000000000000, 0.00000000000000000000, 1483.00000000000000000000, 633.00000000000000000000, 4.00000000000000000000, 0.00000000000000000000, 4.00000000000000000000, 0.00000000000000000000, 0.00000000000000000000, 0.00000000000000000000, 0.00000000000000000000, 0.00000000000000000000, 0.00000000000000000000, 0.00000000000000000000, 0.00000000000000000000, 0.00000000000000000000, 0.00000000000000000000, 0.00000000000000000000, 4.00000000000000000000, 0.00000000000000000000
3.00000000000000000000, 0.00000000000000000000, 4223.58984375000000000000, 4680.00000000000000000000, 4209.74365234375000000000, 4180.00000000000000000000, 4164.10253906250000000000, 4149.74365234375000000000, 4211.79492187500000000000, 4205.64111328125000000000, 4156.41015625000000000000, 4154.35888671875000000000, 4161.02539062500000000000, 4389.74365234375000000000, 5404.61523437500000000000, 4176.92285156250000000000, 1861.00000000000000000000, 10222.00000000000000000000, 10142.00000000000000000000, 0.00000000000000000000, 0.00000000000000000000, 0.00000000000000000000, 1483.00000000000000000000, 639.00000000000000000000, 4.00000000000000000000, 0.00000000000000000000, 4.00000000000000000000, 4.00000000000000000000, 0.00000000000000000000, 0.00000000000000000000, 0.00000000000000000000, 0.00000000000000000000, 0.00000000000000000000, 0.00000000000000000000, 0.00000000000000000000, 0.00000000000000000000, 0.00000000000000000000, 0.00000000000000000000, 4.00000000000000000000, 4.00000000000000000000
4.00000000000000000000, 0.00000000000000000000, 4235.38427734375000000000, 4685.64111328125000000000, 4223.07666015625000000000, 4180.51269531250000000000, 4166.15380859375000000000, 4151.28173828125000000000, 4220.00000000000000000000, 4221.02539062500000000000, 4154.87158203125000000000, 4153.84619140625000000000, 4163.07666015625000000000, 4390.25634765625000000000, 5410.76904296875000000000, 4191.79492187500000000000, 3277.00000000000000000000, 10222.00000000000000000000, 10142.00000000000000000000, 0.00000000000000000000, 0.00000000000000000000, 0.00000000000000000000, 1483.00000000000000000000, 540.00000000000000000000, 4.00000000000000000000, 0.00000000000000000000, 4.00000000000000000000, 4.00000000000000000000, 4.00000000000000000000, 0.00000000000000000000, 0.00000000000000000000, 0.00000000000000000000, 0.00000000000000000000, 0.00000000000000000000, 0.00000000000000000000, 0.00000000000000000000, 0.00000000000000000000, 0.00000000000000000000, 4.00000000000000000000, 4.00000000000000000000
5.00000000000000000000, 0.00000000000000000000, 4241.53857421875000000000, 4686.66650390625000000000, 4232.30761718750000000000, 4180.00000000000000000000, 4165.12792968750000000000, 4149.23046875000000000000, 4226.15380859375000000000, 4233.33300781250000000000, 4155.89746093750000000000, 4153.33300781250000000000, 4164.10253906250000000000, 4388.71777343750000000000, 5402.56396484375000000000, 4200.00000000000000000000, 0.00000000000000000000, 10220.00000000000000000000, 10155.00000000000000000000, 0.00000000000000000000, 0.00000000000000000000, 0.00000000000000000000, 1483.00000000000000000000, 545.00000000000000000000, 4.00000000000000000000, 0.00000000000000000000, 4.00000000000000000000, 4.00000000000000000000, 4.00000000000000000000, 0.00000000000000000000, 0.00000000000000000000, 0.00000000000000000000, 0.00000000000000000000, 0.00000000000000000000, 0.00000000000000000000, 0.00000000000000000000, 0.00000000000000000000, 0.00000000000000000000, 4.00000000000000000000, 4.00000000000000000000
6.00000000000000000000, 0.00000000000000000000, 4238.97412109375000000000, 4684.61523437500000000000, 4233.84619140625000000000, 4179.48730468750000000000, 4161.02539062500000000000, 4146.66650390625000000000, 4227.17919921875000000000, 4236.92285156250000000000, 4160.00000000000000000000, 4153.33300781250000000000, 4164.10253906250000000000, 4387.17919921875000000000, 5384.10253906250000000000, 4197.43603515625000000000, 3602.00000000000000000000, 10220.00000000000000000000, 10155.00000000000000000000, 0.00000000000000000000, 0.00000000000000000000, 0.00000000000000000000, 1483.00000000000000000000, 551.00000000000000000000, 4.00000000000000000000, 0.00000000000000000000, 4.00000000000000000000, 4.00000000000000000000, 4.00000000000000000000, 0.00000000000000000000, 4.00000000000000000000, 0.00000000000000000000, 0.00000000000000000000, 0.00000000000000000000, 0.00000000000000000000, 0.00000000000000000000, 0.00000000000000000000, 0.00000000000000000000, 4.00000000000000000000, 4.00000000000000000000
7.00000000000000000000, 0.00000000000000000000, 4229.23046875000000000000, 4681.02539062500000000000, 4228.20507812500000000000, 4180.00000000000000000000, 4155.89746093750000000000, 4146.15380859375000000000, 4224.10253906250000000000, 4231.79492187500000000000, 4164.61523437500000000000, 4153.33300781250000000000, 4163.58984375000000000000, 4386.66650390625000000000, 5365.12792968750000000000, 4186.66650390625000000000, 3387.00000000000000000000, 10220.00000000000000000000, 10155.00000000000000000000, 0.00000000000000000000, 0.00000000000000000000, 0.00000000000000000000, 1483.00000000000000000000, 557.00000000000000000000, 4.00000000000000000000, 0.00000000000000000000, 4.00000000000000000000, 4.00000000000000000000, 4.00000000000000000000, 0.00000000000000000000, 4.00000000000000000000, 4.00000000000000000000, 0.00000000000000000000, 0.00000000000000000000, 0.00000000000000000000, 0.00000000000000000000, 0.00000000000000000000, 0.00000000000000000000, 4.00000000000000000000, 4.00000000000000000000
8.00000000000000000000, 0.00000000000000000000, 4218.97412109375000000000, 4677.43554687500000000000, 4222.56396484375000000000, 4180.51269531250000000000, 4150.76904296875000000000, 4147.69238281250000000000, 4220.00000000000000000000, 4224.10253906250000000000, 4166.15380859375000000000, 4153.33300781250000000000, 4163.58984375000000000000, 4386.15380859375000000000, 5351.79492187500000000000, 4177.43603515625000000000, 123.00000000000000000000, 10220.00000000000000000000, 10155.00000000000000000000, 0.00000000000000000000, 0.00000000000000000000, 0.00000000000000000000, 1483.00000000000000000000, 562.00000000000000000000, 4.00000000000000000000, 0.00000000000000000000, 4.00000000000000000000, 4.00000000000000000000, 4.00000000000000000000, 0.00000000000000000000, 4.00000000000000000000, 4.00000000000000000000, 1.00000000000000000000, 0.00000000000000000000, 0.00000000000000000000, 0.00000000000000000000, 0.00000000000000000000, 0.00000000000000000000, 4.00000000000000000000, 4.00000000000000000000
9.00000000000000000000, 0.00000000000000000000, 4215.38427734375000000000, 4675.89746093750000000000, 4221.02539062500000000000, 4179.48730468750000000000, 4148.71777343750000000000, 4148.71777343750000000000, 4220.00000000000000000000, 4221.53857421875000000000, 4164.61523437500000000000, 4153.33300781250000000000, 4163.58984375000000000000, 4385.12792968750000000000, 5345.12792968750000000000, 4176.92285156250000000000, 0.00000000000000000000, 10221.00000000000000000000, 10186.00000000000000000000, 0.00000000000000000000, 0.00000000000000000000, 0.00000000000000000000, 1483.00000000000000000000, 568.00000000000000000000, 4.00000000000000000000, 0.00000000000000000000, 4.00000000000000000000, 4.00000000000000000000, 4.00000000000000000000, 0.00000000000000000000, 4.00000000000000000000, 4.00000000000000000000, 1.00000000000000000000, 0.00000000000000000000, 0.00000000000000000000, 0.00000000000000000000, 0.00000000000000000000, 0.00000000000000000000, 4.00000000000000000000, 4.00000000000000000000
10.00000000000000000000, 0.00000000000000000000, 4218.46142578125000000000, 4677.43554687500000000000, 4224.10253906250000000000, 4177.94873046875000000000, 4152.82031250000000000000, 4147.69238281250000000000, 4222.56396484375000000000, 4227.17919921875000000000, 4161.53857421875000000000, 4153.84619140625000000000, 4164.10253906250000000000, 4382.05126953125000000000, 5340.00000000000000000000, 4185.64111328125000000000, 3144.00000000000000000000, 10221.00000000000000000000, 10186.00000000000000000000, 0.00000000000000000000, 0.00000000000000000000, 0.00000000000000000000, 1483.00000000000000000000, 574.00000000000000000000, 4.00000000000000000000, 0.00000000000000000000, 4.00000000000000000000, 4.00000000000000000000, 4.00000000000000000000, 0.00000000000000000000, 4.00000000000000000000, 4.00000000000000000000, 1.00000000000000000000, 0.00000000000000000000, 4.00000000000000000000, 0.00000000000000000000, 0.00000000000000000000, 0.00000000000000000000, 4.00000000000000000000, 4.00000000000000000000
11.00000000000000000000, 0.00000000000000000000, 4224.61523437500000000000, 4681.53857421875000000000, 4227.17919921875000000000, 4176.41015625000000000000, 4162.05126953125000000000, 4146.66650390625000000000, 4225.64111328125000000000, 4236.41015625000000000000, 4159.48730468750000000000, 4154.35888671875000000000, 4164.61523437500000000000, 4379.48730468750000000000, 5329.23046875000000000000, 4195.89746093750000000000, 3209.00000000000000000000, 10221.00000000000000000000, 10186.00000000000000000000, 0.00000000000000000000, 0.00000000000000000000, 0.00000000000000000000, 1483.00000000000000000000, 579.00000000000000000000, 4.00000000000000000000, 0.00000000000000000000, 4.00000000000000000000, 4.00000000000000000000, 4.00000000000000000000, 0.00000000000000000000, 4.00000000000000000000, 4.00000000000000000000, 1.00000000000000000000, 0.00000000000000000000, 4.00000000000000000000, 4.00000000000000000000, 0.00000000000000000000, 0.00000000000000000000, 4.00000000000000000000, 4.00000000000000000000
12.00000000000000000000, 0.00000000000000000000, 4228.71777343750000000000, 4686.66650390625000000000, 4226.66650390625000000000, 4177.94873046875000000000, 4175.38427734375000000000, 4147.17919921875000000000, 4227.17919921875000000000, 4243.58984375000000000000, 4160.00000000000000000000, 4154.87158203125000000000, 4164.61523437500000000000, 4378.97412109375000000000, 5313.33300781250000000000, 4201.02539062500000000000, 0.00000000000000000000, 10221.00000000000000000000, 10186.00000000000000000000, 0.00000000000000000000, 0.00000000000000000000, 0.00000000000000000000, 1483.00000000000000000000, 585.00000000000000000000, 4.00000000000000000000, 0.00000000000000000000, 4.00000000000000000000, 4.00000000000000000000, 4.00000000000000000000, 0.00000000000000000000, 4.00000000000000000000, 4.00000000000000000000, 1.00000000000000000000, 0.00000000000000000000, 4.00000000000000000000, 4.00000000000000000000, 0.00000000000000000000, 0.00000000000000000000, 4.00000000000000000000, 4.00000000000000000000
13.00000000000000000000, 0.00000000000000000000, 4230.76904296875000000000, 4689.74365234375000000000, 4225.12792968750000000000, 4181.02539062500000000000, 4188.71777343750000000000, 4149.74365234375000000000, 4229.23046875000000000000, 4247.69238281250000000000, 4161.53857421875000000000, 4155.38427734375000000000, 4164.10253906250000000000, 4379.48730468750000000000, 5295.38427734375000000000, 4201.53857421875000000000, 0.00000000000000000000, 10223.00000000000000000000, 10194.00000000000000000000, 0.00000000000000000000, 0.00000000000000000000, 0.00000000000000000000, 1483.00000000000000000000, 590.00000000000000000000, 4.00000000000000000000, 0.00000000000000000000, 4.00000000000000000000, 4.00000000000000000000, 4.00000000000000000000, 0.00000000000000000000, 4.00000000000000000000, 4.00000000000000000000, 1.00000000000000000000, 0.00000000000000000000, 4.00000000000000000000, 4.00000000000000000000, 0.00000000000000000000, 0.00000000000000000000, 4.00000000000000000000, 4.00000000000000000000
14.00000000000000000000, 0.00000000000000000000, 4231.79492187500000000000, 4688.71777343750000000000, 4224.61523437500000000000, 4183.07666015625000000000, 4196.92285156250000000000, 4151.79492187500000000000, 4234.35888671875000000000, 4248.20507812500000000000, 4162.05126953125000000000, 4155.38427734375000000000, 4163.07666015625000000000, 4379.48730468750000000000, 5278.46142578125000000000, 4200.00000000000000000000, 3144.00000000000000000000, 10223.00000000000000000000, 10194.00000000000000000000, 0.00000000000000000000, 0.00000000000000000000, 0.00000000000000000000, 1483.00000000000000000000, 596.00000000000000000000, 4.00000000000000000000, 0.00000000000000000000, 4.00000000000000000000, 4.00000000000000000000, 4.00000000000000000000, 0.00000000000000000000, 4.00000000000000000000, 4.00000000000000000000, 1.00000000000000000000, 0.00000000000000000000, 4.00000000000000000000, 4.00000000000000000000, 0.00000000000000000000, 0.00000000000000000000, 4.00000000000000000000, 4.00000000000000000000
15.00000000000000000000, 0.00000000000000000000, 4229.23046875000000000000, 4683.58984375000000000000, 4224.61523437500000000000, 4183.07666015625000000000, 4195.89746093750000000000, 4151.79492187500000000000, 4238.97412109375000000000, 4245.12792968750000000000, 4161.02539062500000000000, 4154.87158203125000000000, 4162.05126953125000000000, 4378.46142578125000000000, 5260.51269531250000000000, 4197.43603515625000000000, 3209.00000000000000000000, 10223.00000000000000000000, 10194.00000000000000000000, 0.00000000000000000000, 0.00000000000000000000, 0.00000000000000000000, 1483.00000000000000000000, 602.00000000000000000000, 4.00000000000000000000, 0.00000000000000000000, 4.00000000000000000000, 4.00000000000000000000, 4.00000000000000000000, 0.00000000000000000000, 4.00000000000000000000, 4.00000000000000000000, 1.00000000000000000000, 0.00000000000000000000, 4.00000000000000000000, 4.00000000000000000000, 0.00000000000000000000, 0.00000000000000000000, 4.00000000000000000000, 4.00000000000000000000
16.00000000000000000000, 0.00000000000000000000, 4221.02539062500000000000, 4675.89746093750000000000, 4221.53857421875000000000, 4181.02539062500000000000, 4184.61523437500000000000, 4150.25634765625000000000, 4237.94873046875000000000, 4236.92285156250000000000, 4158.97412109375000000000, 4153.84619140625000000000, 4161.02539062500000000000, 4376.92285156250000000000, 5237.43554687500000000000, 4194.35888671875000000000, 0.00000000000000000000, 10223.00000000000000000000, 10194.00000000000000000000, 0.00000000000000000000, 0.00000000000000000000, 0.00000000000000000000, 1483.00000000000000000000, 607.00000000000000000000, 4.00000000000000000000, 0.00000000000000000000, 4.00000000000000000000, 4.00000000000000000000, 4.00000000000000000000, 0.00000000000000000000, 4.00000000000000000000, 4.00000000000000000000, 1.00000000000000000000, 0.00000000000000000000, 4.00000000000000000000, 4.00000000000000000000, 0.00000000000000000000, 0.00000000000000000000, 4.00000000000000000000, 4.00000000000000000000
17.00000000000000000000, 0.00000000000000000000, 4209.74365234375000000000, 4668.71777343750000000000, 4215.38427734375000000000, 4180.00000000000000000000, 4167.69238281250000000000, 4149.23046875000000000000, 4228.71777343750000000000, 4224.61523437500000000000, 4156.41015625000000000000, 4152.82031250000000000000, 4161.53857421875000000000, 4376.41015625000000000000, 5208.20507812500000000000, 4191.28173828125000000000, 0.00000000000000000000, 10226.00000000000000000000, 10198.00000000000000000000, 0.00000000000000000000, 0.00000000000000000000, 0.00000000000000000000, 1483.00000000000000000000, 613.00000000000000000000, 4.00000000000000000000, 0.00000000000000000000, 4.00000000000000000000, 4.00000000000000000000, 4.00000000000000000000, 0.00000000000000000000, 4.00000000000000000000, 4.00000000000000000000, 1.00000000000000000000, 0.00000000000000000000, 4.00000000000000000000, 4.00000000000000000000, 0.00000000000000000000, 0.00000000000000000000, 4.00000000000000000000, 4.00000000000000000000
18.00000000000000000000, 0.00000000000000000000, 4202.56396484375000000000, 4665.12792968750000000000, 4210.76904296875000000000, 4180.00000000000000000000, 4154.35888671875000000000, 4149.23046875000000000000, 4216.92285156250000000000, 4214.87158203125000000000, 4154.35888671875000000000, 4152.30761718750000000000, 4162.05126953125000000000, 4376.92285156250000000000, 5180.00000000000000000000, 4189.74365234375000000000, 3144.00000000000000000000, 10226.00000000000000000000, 10198.00000000000000000000, 0.00000000000000000000, 0.00000000000000000000, 0.00000000000000000000, 1483.00000000000000000000, 619.00000000000000000000, 4.00000000000000000000, 0.00000000000000000000, 4.00000000000000000000, 4.00000000000000000000, 4.00000000000000000000, 0.00000000000000000000, 4.00000000000000000000, 4.00000000000000000000, 1.00000000000000000000, 0.00000000000000000000, 4.00000000000000000000, 4.00000000000000000000, 0.00000000000000000000, 0.00000000000000000000, 4.00000000000000000000, 4.00000000000000000000
19.00000000000000000000, 0.00000000000000000000, 4207.17919921875000000000, 4668.20507812500000000000, 4213.33300781250000000000, 4178.97412109375000000000, 4151.79492187500000000000, 4149.74365234375000000000, 4210.25634765625000000000, 4213.84619140625000000000, 4153.33300781250000000000, 4152.30761718750000000000, 4162.56396484375000000000, 4376.41015625000000000000, 5160.00000000000000000000, 4189.23046875000000000000, 3209.00000000000000000000, 10226.00000000000000000000, 10198.00000000000000000000, 0.00000000000000000000, 0.00000000000000000000, 0.00000000000000000000, 1483.00000000000000000000, 624.00000000000000000000, 4.00000000000000000000, 0.00000000000000000000, 4.00000000000000000000, 4.00000000000000000000, 4.00000000000000000000, 0.00000000000000000000, 4.00000000000000000000, 4.00000000000000000000, 1.00000000000000000000, 0.00000000000000000000, 4.00000000000000000000, 4.00000000000000000000, 0.00000000000000000000, 0.00000000000000000000, 4.00000000000000000000, 4.00000000000000000000
20.00000000000000000000, 0.00000000000000000000, 4221.02539062500000000000, 4674.87158203125000000000, 4221.53857421875000000000, 4176.92285156250000000000, 4158.97412109375000000000, 4148.71777343750000000000, 4211.28173828125000000000, 4221.02539062500000000000, 4154.87158203125000000000, 4152.82031250000000000000, 4162.05126953125000000000, 4375.38427734375000000000, 5151.79492187500000000000, 4184.61523437500000000000, 0.00000000000000000000, 10226.00000000000000000000, 10198.00000000000000000000, 0.00000000000000000000, 0.00000000000000000000, 0.00000000000000000000, 1483.00000000000000000000, 630.00000000000000000000, 4.00000000000000000000, 0.00000000000000000000, 4.00000000000000000000, 4.00000000000000000000, 4.00000000000000000000, 0.00000000000000000000, 4.00000000000000000000, 4.00000000000000000000, 1.00000000000000000000, 0.00000000000000000000, 4.00000000000000000000, 4.00000000000000000000, 0.00000000000000000000, 0.00000000000000000000, 4.00000000000000000000, 4.00000000000000000000
21.00000000000000000000, 0.00000000000000000000, 4233.33300781250000000000, 4680.00000000000000000000, 4229.74365234375000000000, 4175.89746093750000000000, 4166.66650390625000000000, 4147.69238281250000000000, 4214.35888671875000000000, 4229.23046875000000000000, 4157.43603515625000000000, 4153.84619140625000000000, 4161.02539062500000000000, 4375.38427734375000000000, 5147.69238281250000000000, 4171.79492187500000000000, 0.00000000000000000000, 10229.00000000000000000000, 10202.00000000000000000000, 0.00000000000000000000, 0.00000000000000000000, 0.00000000000000000000, 1483.00000000000000000000, 636.00000000000000000000, 4.00000000000000000000, 0.00000000000000000000, 4.00000000000000000000, 4.00000000000000000000, 4.00000000000000000000, 0.00000000000000000000, 4.00000000000000000000, 4.00000000000000000000, 1.00000000000000000000, 0.00000000000000000000, 4.00000000000000000000, 4.00000000000000000000, 0.00000000000000000000, 0.00000000000000000000, 4.00000000000000000000, 4.00000000000000000000
22.00000000000000000000, 0.00000000000000000000, 4236.41015625000000000000, 4678.97412109375000000000, 4231.79492187500000000000, 4176.92285156250000000000, 4167.17919921875000000000, 4148.20507812500000000000, 4212.82031250000000000000, 4230.76904296875000000000, 4160.00000000000000000000, 4154.35888671875000000000, 4160.00000000000000000000, 4377.43554687500000000000, 5140.51269531250000000000, 4155.38427734375000000000, 3144.00000000000000000000, 10229.00000000000000000000, 10202.00000000000000000000, 0.00000000000000000000, 0.00000000000000000000, 0.00000000000000000000, 1483.00000000000000000000, 540.00000000000000000000, 4.00000000000000000000, 0.00000000000000000000, 4.00000000000000000000, 4.00000000000000000000, 4.00000000000000000000, 0.00000000000000000000, 4.00000000000000000000, 4.00000000000000000000, 1.00000000000000000000, 0.00000000000000000000, 4.00000000000000000000, 4.00000000000000000000, 0.00000000000000000000, 0.00000000000000000000, 4.00000000000000000000, 4.00000000000000000000
23.00000000000000000000, 0.00000000000000000000, 4230.76904296875000000000, 4674.35888671875000000000, 4229.23046875000000000000, 4179.48730468750000000000, 4164.61523437500000000000, 4150.25634765625000000000, 4208.20507812500000000000, 4228.71777343750000000000, 4162.05126953125000000000, 4154.35888671875000000000, 4160.00000000000000000000, 4379.48730468750000000000, 5131.79492187500000000000, 4147.69238281250000000000, 3209.00000000000000000000, 10229.00000000000000000000, 10202.00000000000000000000, 0.00000000000000000000, 0.00000000000000000000, 0.00000000000000000000, 1483.00000000000000000000, 545.00000000000000000000, 4.00000000000000000000, 0.00000000000000000000, 4.00000000000000000000, 4.00000000000000000000, 4.00000000000000000000, 0.00000000000000000000, 4.00000000000000000000, 4.00000000000000000000, 1.00000000000000000000, 0.00000000000000000000, 4.00000000000000000000, 4.00000000000000000000, 0.00000000000000000000, 0.00000000000000000000, 4.00000000000000000000, 4.00000000000000000000
24.00000000000000000000, 0.00000000000000000000, 4227.17919921875000000000, 4671.28173828125000000000, 4227.17919921875000000000, 4180.51269531250000000000, 4167.17919921875000000000, 4151.28173828125000000000, 4209.23046875000000000000, 4230.25634765625000000000, 4162.56396484375000000000, 4154.35888671875000000000, 4160.51269531250000000000, 4380.51269531250000000000, 5128.71777343750000000000, 4160.51269531250000000000, 0.00000000000000000000, 10229.00000000000000000000, 10202.00000000000000000000, 0.00000000000000000000, 0.00000000000000000000, 0.00000000000000000000, 1483.00000000000000000000, 551.00000000000000000000, 4.00000000000000000000, 0.00000000000000000000, 4.00000000000000000000, 4.00000000000000000000, 4.00000000000000000000, 0.00000000000000000000, 4.00000000000000000000, 4.00000000000000000000, 1.00000000000000000000, 0.00000000000000000000, 4.00000000000000000000, 4.00000000000000000000, 0.00000000000000000000, 0.00000000000000000000, 4.00000000000000000000, 4.00000000000000000000
25.00000000000000000000, 0.00000000000000000000, 4232.82031250000000000000, 4673.33300781250000000000, 4230.25634765625000000000, 4178.97412109375000000000, 4174.35888671875000000000, 4150.25634765625000000000, 4218.46142578125000000000, 4239.48730468750000000000, 4162.56396484375000000000, 4154.35888671875000000000, 4161.53857421875000000000, 4378.46142578125000000000, 5132.82031250000000000000, 4189.74365234375000000000, 0.00000000000000000000, 10233.00000000000000000000, 10207.00000000000000000000, 0.00000000000000000000, 0.00000000000000000000, 0.00000000000000000000, 1483.00000000000000000000, 557.00000000000000000000, 4.00000000000000000000, 0.00000000000000000000, 4.00000000000000000000, 4.00000000000000000000, 4.00000000000000000000, 0.00000000000000000000, 4.00000000000000000000, 4.00000000000000000000, 1.00000000000000000000, 0.00000000000000000000, 4.00000000000000000000, 4.00000000000000000000, 0.00000000000000000000, 0.00000000000000000000, 4.00000000000000000000, 4.00000000000000000000
26.00000000000000000000, 0.00000000000000000000, 4242.56396484375000000000, 4675.38427734375000000000, 4234.87158203125000000000, 4176.41015625000000000000, 4175.38427734375000000000, 4147.17919921875000000000, 4227.69238281250000000000, 4247.17919921875000000000, 4161.53857421875000000000, 4155.38427734375000000000, 4163.07666015625000000000, 4376.41015625000000000000, 5132.82031250000000000000, 4213.33300781250000000000, 3144.00000000000000000000, 10233.00000000000000000000, 10207.00000000000000000000, 0.00000000000000000000, 0.00000000000000000000, 0.00000000000000000000, 1483.00000000000000000000, 562.00000000000000000000, 4.00000000000000000000, 0.00000000000000000000, 4.00000000000000000000, 4.00000000000000000000, 4.00000000000000000000, 0.00000000000000000000, 4.00000000000000000000, 4.00000000000000000000, 1.00000000000000000000, 0.00000000000000000000, 4.00000000000000000000, 4.00000000000000000000, 0.00000000000000000000, 0.00000000000000000000, 4.00000000000000000000, 4.00000000000000000000
27.00000000000000000000, 0.00000000000000000000, 4245.64111328125000000000, 4670.25634765625000000000, 4233.84619140625000000000, 4175.89746093750000000000, 4161.02539062500000000000, 4145.64111328125000000000, 4225.64111328125000000000, 4242.56396484375000000000, 4159.48730468750000000000, 4155.89746093750000000000, 4165.12792968750000000000, 4375.89746093750000000000, 5112.82031250000000000000, 4209.23046875000000000000, 3209.00000000000000000000, 10233.00000000000000000000, 10207.00000000000000000000, 0.00000000000000000000, 0.00000000000000000000, 0.00000000000000000000, 1483.00000000000000000000, 568.00000000000000000000, 4.00000000000000000000, 0.00000000000000000000, 4.00000000000000000000, 4.00000000000000000000, 4.00000000000000000000, 0.00000000000000000000, 4.00000000000000000000, 4.00000000000000000000, 1.00000000000000000000, 0.00000000000000000000, 4.00000000000000000000, 4.00000000000000000000, 0.00000000000000000000, 0.00000000000000000000, 4.00000000000000000000, 4.00000000000000000000
28.00000000000000000000, 0.00000000000000000000, 4236.92285156250000000000, 4656.41015625000000000000, 4224.10253906250000000000, 4177.43603515625000000000, 4138.97412109375000000000, 4146.15380859375000000000, 4211.28173828125000000000, 4226.15380859375000000000, 4156.92285156250000000000, 4156.92285156250000000000, 4165.64111328125000000000, 4376.41015625000000000000, 5072.82031250000000000000, 4172.82031250000000000000, 0.00000000000000000000, 10233.00000000000000000000, 10207.00000000000000000000, 0.00000000000000000000, 0.00000000000000000000, 0.00000000000000000000, 1483.00000000000000000000, 574.00000000000000000000, 4.00000000000000000000, 0.00000000000000000000, 4.00000000000000000000, 4.00000000000000000000, 4.00000000000000000000, 0.00000000000000000000, 4.00000000000000000000, 4.00000000000000000000, 1.00000000000000000000, 0.00000000000000000000, 4.00000000000000000000, 4.00000000000000000000, 0.00000000000000000000, 0.00000000000000000000, 4.00000000000000000000, 4.00000000000000000000
29.00000000000000000000, 0.00000000000000000000, 4222.05126953125000000000, 4641.53857421875000000000, 4211.28173828125000000000, 4178.46142578125000000000, 4127.17919921875000000000, 4147.17919921875000000000, 4196.41015625000000000000, 4209.23046875000000000000, 4155.38427734375000000000, 4156.92285156250000000000, 4164.61523437500000000000, 4376.41015625000000000000, 5029.23046875000000000000, 4127.17919921875000000000, 0.00000000000000000000, 10241.00000000000000000000, 10214.00000000000000000000, 0.00000000000000000000, 0.00000000000000000000, 0.00000000000000000000, 1483.00000000000000000000, 579.00000000000000000000, 4.00000000000000000000, 0.00000000000000000000, 4.00000000000000000000, 4.00000000000000000000, 4.00000000000000000000, 0.00000000000000000000, 4.00000000000000000000, 4.00000000000000000000, 1.00000000000000000000, 0.00000000000000000000, 4.00000000000000000000, 4.00000000000000000000, 0.00000000000000000000, 0.00000000000000000000, 4.00000000000000000000, 4.00000000000000000000
30.00000000000000000000, 0.00000000000000000000, 4213.33300781250000000000, 4634.87158203125000000000, 4203.58984375000000000000, 4176.92285156250000000000, 4138.97412109375000000000, 4147.17919921875000000000, 4194.87158203125000000000, 4206.66650390625000000000, 4155.89746093750000000000, 4156.41015625000000000000, 4163.07666015625000000000, 4375.38427734375000000000, 5003.58984375000000000000, 4103.07666015625000000000, 3144.00000000000000000000, 10241.00000000000000000000, 10214.00000000000000000000, 0.00000000000000000000, 0.00000000000000000000, 0.00000000000000000000, 1483.00000000000000000000, 583.00000000000000000000, 4.00000000000000000000, 0.00000000000000000000, 4.00000000000000000000, 4.00000000000000000000, 4.00000000000000000000, 0.00000000000000000000, 4.00000000000000000000, 4.00000000000000000000, 1.00000000000000000000, 0.00000000000000000000, 4.00000000000000000000, 4.00000000000000000000, 0.00000000000000000000, 0.00000000000000000000, 4.00000000000000000000, 4.00000000000000000000
31.00000000000000000000, 0.00000000000000000000, 4215.89746093750000000000, 4641.02539062500000000000, 4205.64111328125000000000, 4174.35888671875000000000, 4169.74365234375000000000, 4146.15380859375000000000, 4208.71777343750000000000, 4219.48730468750000000000, 4157.94873046875000000000, 4155.38427734375000000000, 4162.56396484375000000000, 4374.87158203125000000000, 5001.02539062500000000000, 4116.92285156250000000000, 3209.00000000000000000000, 10241.00000000000000000000, 10214.00000000000000000000, 0.00000000000000000000, 0.00000000000000000000, 0.00000000000000000000, 1483.00000000000000000000, 587.00000000000000000000, 4.00000000000000000000, 0.00000000000000000000, 4.00000000000000000000, 4.00000000000000000000, 4.00000000000000000000, 0.00000000000000000000, 4.00000000000000000000, 4.00000000000000000000, 1.00000000000000000000, 0.00000000000000000000, 4.00000000000000000000, 4.00000000000000000000, 0.00000000000000000000, 0.00000000000000000000, 4.00000000000000000000, 4.00000000000000000000
32.00000000000000000000, 0.00000000000000000000, 4227.69238281250000000000, 4653.33300781250000000000, 4214.87158203125000000000, 4173.84619140625000000000, 4200.00000000000000000000, 4146.15380859375000000000, 4226.66650390625000000000, 4235.89746093750000000000, 4160.51269531250000000000, 4154.35888671875000000000, 4162.56396484375000000000, 4375.89746093750000000000, 5009.23046875000000000000, 4156.92285156250000000000, 0.00000000000000000000, 10241.00000000000000000000, 10214.00000000000000000000, 0.00000000000000000000, 0.00000000000000000000, 0.00000000000000000000, 1483.00000000000000000000, 590.00000000000000000000, 4.00000000000000000000, 0.00000000000000000000, 4.00000000000000000000, 4.00000000000000000000, 4.00000000000000000000, 0.00000000000000000000, 4.00000000000000000000, 4.00000000000000000000, 1.00000000000000000000, 0.00000000000000000000, 4.00000000000000000000, 4.00000000000000000000, 0.00000000000000000000, 0.00000000000000000000, 4.00000000000000000000, 4.00000000000000000000
33.00000000000000000000, 0.00000000000000000000, 4240.51269531250000000000, 4661.53857421875000000000, 4225.12792968750000000000, 4175.89746093750000000000, 4212.30761718750000000000, 4146.66650390625000000000, 4235.89746093750000000000, 4242.05126953125000000000, 4162.05126953125000000000, 4153.84619140625000000000, 4162.05126953125000000000, 4378.46142578125000000000, 5010.76904296875000000000, 4193.84619140625000000000, 0.00000000000000000000, 10241.00000000000000000000, 10216.00000000000000000000, 0.00000000000000000000, 0.00000000000000000000, 0.00000000000000000000, 1483.00000000000000000000, 594.00000000000000000000, 4.00000000000000000000, 0.00000000000000000000, 4.00000000000000000000, 4.00000000000000000000, 4.00000000000000000000, 0.00000000000000000000, 4.00000000000000000000, 4.00000000000000000000, 1.00000000000000000000, 0.00000000000000000000, 4.00000000000000000000, 4.00000000000000000000, 0.00000000000000000000, 0.00000000000000000000, 4.00000000000000000000, 4.00000000000000000000
34.00000000000000000000, 0.00000000000000000000, 4247.69238281250000000000, 4661.02539062500000000000, 4231.28173828125000000000, 4178.46142578125000000000, 4205.64111328125000000000, 4147.69238281250000000000, 4231.28173828125000000000, 4234.87158203125000000000, 4162.56396484375000000000, 4153.33300781250000000000, 4161.53857421875000000000, 4379.48730468750000000000, 4996.41015625000000000000, 4203.58984375000000000000, 0.00000000000000000000, 10241.00000000000000000000, 10216.00000000000000000000, 0.00000000000000000000, 0.00000000000000000000, 0.00000000000000000000, 1483.00000000000000000000, 598.00000000000000000000, 4.00000000000000000000, 0.00000000000000000000, 4.00000000000000000000, 4.00000000000000000000, 4.00000000000000000000, 0.00000000000000000000, 4.00000000000000000000, 4.00000000000000000000, 1.00000000000000000000, 0.00000000000000000000, 4.00000000000000000000, 4.00000000000000000000, 0.00000000000000000000, 0.00000000000000000000, 4.00000000000000000000, 4.00000000000000000000
35.00000000000000000000, 0.00000000000000000000, 4248.20507812500000000000, 4654.35888671875000000000, 4231.79492187500000000000, 4179.48730468750000000000, 4190.76904296875000000000, 4147.69238281250000000000, 4219.48730468750000000000, 4222.56396484375000000000, 4161.02539062500000000000, 4153.33300781250000000000, 4162.05126953125000000000, 4376.41015625000000000000, 4971.79492187500000000000, 4183.58984375000000000000, 0.00000000000000000000, 10241.00000000000000000000, 10216.00000000000000000000, 0.00000000000000000000, 0.00000000000000000000, 0.00000000000000000000, 1483.00000000000000000000, 601.00000000000000000000, 4.00000000000000000000, 0.00000000000000000000, 4.00000000000000000000, 4.00000000000000000000, 4.00000000000000000000, 0.00000000000000000000, 4.00000000000000000000, 4.00000000000000000000, 1.00000000000000000000, 0.00000000000000000000, 4.00000000000000000000, 4.00000000000000000000, 0.00000000000000000000, 0.00000000000000000000, 4.00000000000000000000, 4.00000000000000000000
36.00000000000000000000, 0.00000000000000000000, 4244.61523437500000000000, 4646.66650390625000000000, 4228.20507812500000000000, 4178.97412109375000000000, 4180.00000000000000000000, 4146.66650390625000000000, 4210.76904296875000000000, 4217.43603515625000000000, 4158.97412109375000000000, 4153.33300781250000000000, 4164.61523437500000000000, 4372.30761718750000000000, 4948.71777343750000000000, 4152.30761718750000000000, 0.00000000000000000000, 10241.00000000000000000000, 10216.00000000000000000000, 0.00000000000000000000, 0.00000000000000000000, 0.00000000000000000000, 1483.00000000000000000000, 605.00000000000000000000, 4.00000000000000000000, 0.00000000000000000000, 4.00000000000000000000, 4.00000000000000000000, 4.00000000000000000000, 0.00000000000000000000, 4.00000000000000000000, 4.00000000000000000000, 1.00000000000000000000, 0.00000000000000000000, 4.00000000000000000000, 4.00000000000000000000, 0.00000000000000000000, 0.00000000000000000000, 4.00000000000000000000, 4.00000000000000000000
37.00000000000000000000, 0.00000000000000000000, 4241.02539062500000000000, 4642.56396484375000000000, 4223.58984375000000000000, 4178.46142578125000000000, 4176.92285156250000000000, 4147.17919921875000000000, 4209.23046875000000000000, 4222.56396484375000000000, 4157.94873046875000000000, 4153.33300781250000000000, 4169.23046875000000000000, 4369.23046875000000000000, 4934.87158203125000000000, 4133.33300781250000000000, 0.00000000000000000000, 10242.00000000000000000000, 10223.00000000000000000000, 0.00000000000000000000, 0.00000000000000000000, 0.00000000000000000000, 1483.00000000000000000000, 609.00000000000000000000, 4.00000000000000000000, 0.00000000000000000000, 4.00000000000000000000, 4.00000000000000000000, 4.00000000000000000000, 0.00000000000000000000, 4.00000000000000000000, 4.00000000000000000000, 1.00000000000000000000, 0.00000000000000000000, 4.00000000000000000000, 4.00000000000000000000, 0.00000000000000000000, 0.00000000000000000000, 4.00000000000000000000, 4.00000000000000000000
38.00000000000000000000, 0.00000000000000000000, 4239.48730468750000000000, 4642.56396484375000000000, 4221.02539062500000000000, 4178.97412109375000000000, 4176.92285156250000000000, 4148.71777343750000000000, 4213.84619140625000000000, 4233.84619140625000000000, 4158.97412109375000000000, 4153.84619140625000000000, 4171.79492187500000000000, 4369.74365234375000000000, 4929.23046875000000000000, 4138.46142578125000000000, 0.00000000000000000000, 10242.00000000000000000000, 10223.00000000000000000000, 0.00000000000000000000, 0.00000000000000000000, 0.00000000000000000000, 1483.00000000000000000000, 613.00000000000000000000, 4.00000000000000000000, 0.00000000000000000000, 4.00000000000000000000, 4.00000000000000000000, 4.00000000000000000000, 0.00000000000000000000, 4.00000000000000000000, 4.00000000000000000000, 1.00000000000000000000, 0.00000000000000000000, 4.00000000000000000000, 4.00000000000000000000, 0.00000000000000000000, 0.00000000000000000000, 4.00000000000000000000, 4.00000000000000000000
39.00000000000000000000, 0.00000000000000000000, 4241.02539062500000000000, 4643.58984375000000000000, 4221.02539062500000000000, 4178.46142578125000000000, 4173.84619140625000000000, 4150.25634765625000000000, 4218.46142578125000000000, 4240.51269531250000000000, 4160.00000000000000000000, 4153.84619140625000000000, 4171.28173828125000000000, 4370.76904296875000000000, 4925.12792968750000000000, 4162.05126953125000000000, 0.00000000000000000000, 10242.00000000000000000000, 10223.00000000000000000000, 0.00000000000000000000, 0.00000000000000000000, 0.00000000000000000000, 1483.00000000000000000000, 616.00000000000000000000, 4.00000000000000000000, 0.00000000000000000000, 4.00000000000000000000, 4.00000000000000000000, 4.00000000000000000000, 0.00000000000000000000, 4.00000000000000000000, 4.00000000000000000000, 1.00000000000000000000, 0.00000000000000000000, 4.00000000000000000000, 4.00000000000000000000, 0.00000000000000000000, 0.00000000000000000000, 4.00000000000000000000, 4.00000000000000000000
40.00000000000000000000, 0.00000000000000000000, 4244.10253906250000000000, 4642.56396484375000000000, 4223.07666015625000000000, 4176.92285156250000000000, 4165.64111328125000000000, 4149.74365234375000000000, 4220.00000000000000000000, 4237.43603515625000000000, 4161.02539062500000000000, 4153.84619140625000000000, 4167.69238281250000000000, 4370.76904296875000000000, 4914.87158203125000000000, 4188.71777343750000000000, 0.00000000000000000000, 10242.00000000000000000000, 10223.00000000000000000000, 0.00000000000000000000, 0.00000000000000000000, 0.00000000000000000000, 1483.00000000000000000000, 620.00000000000000000000, 4.00000000000000000000, 0.00000000000000000000, 4.00000000000000000000, 4.00000000000000000000, 4.00000000000000000000, 0.00000000000000000000, 4.00000000000000000000, 4.00000000000000000000, 1.00000000000000000000, 0.00000000000000000000, 4.00000000000000000000, 4.00000000000000000000, 0.00000000000000000000, 0.00000000000000000000, 4.00000000000000000000, 4.00000000000000000000
41.00000000000000000000, 0.00000000000000000000, 4246.15380859375000000000, 4637.43554687500000000000, 4224.61523437500000000000, 4175.38427734375000000000, 4154.35888671875000000000, 4148.71777343750000000000, 4216.92285156250000000000, 4226.15380859375000000000, 4160.00000000000000000000, 4153.84619140625000000000, 4164.10253906250000000000, 4370.76904296875000000000, 4895.89746093750000000000, 4202.05126953125000000000, 0.00000000000000000000, 10243.00000000000000000000, 10227.00000000000000000000, 0.00000000000000000000, 0.00000000000000000000, 0.00000000000000000000, 1483.00000000000000000000, 624.00000000000000000000, 4.00000000000000000000, 0.00000000000000000000, 4.00000000000000000000, 4.00000000000000000000, 4.00000000000000000000, 0.00000000000000000000, 4.00000000000000000000, 4.00000000000000000000, 1.00000000000000000000, 0.00000000000000000000, 4.00000000000000000000, 4.00000000000000000000, 0.00000000000000000000, 0.00000000000000000000, 4.00000000000000000000, 4.00000000000000000000
42.00000000000000000000, 0.00000000000000000000, 4245.12792968750000000000, 4629.74365234375000000000, 4224.61523437500000000000, 4175.89746093750000000000, 4147.69238281250000000000, 4148.71777343750000000000, 4212.82031250000000000000, 4214.87158203125000000000, 4157.43603515625000000000, 4153.33300781250000000000, 4163.07666015625000000000, 4371.28173828125000000000, 4871.79492187500000000000, 4198.46142578125000000000, 0.00000000000000000000, 10243.00000000000000000000, 10227.00000000000000000000, 0.00000000000000000000, 0.00000000000000000000, 0.00000000000000000000, 1483.00000000000000000000, 627.00000000000000000000, 4.00000000000000000000, 0.00000000000000000000, 4.00000000000000000000, 4.00000000000000000000, 4.00000000000000000000, 0.00000000000000000000, 4.00000000000000000000, 4.00000000000000000000, 1.00000000000000000000, 0.00000000000000000000, 4.00000000000000000000, 4.00000000000000000000, 0.00000000000000000000, 0.00000000000000000000, 4.00000000000000000000, 4.00000000000000000000
43.00000000000000000000, 0.00000000000000000000, 4242.05126953125000000000, 4622.05126953125000000000, 4224.61523437500000000000, 4177.94873046875000000000, 4149.23046875000000000000, 4150.25634765625000000000, 4211.79492187500000000000, 4210.76904296875000000000, 4154.87158203125000000000, 4152.82031250000000000000, 4165.64111328125000000000, 4373.84619140625000000000, 4851.28173828125000000000, 4188.20507812500000000000, 0.00000000000000000000, 10243.00000000000000000000, 10227.00000000000000000000, 0.00000000000000000000, 0.00000000000000000000, 0.00000000000000000000, 1483.00000000000000000000, 631.00000000000000000000, 4.00000000000000000000, 0.00000000000000000000, 4.00000000000000000000, 4.00000000000000000000, 4.00000000000000000000, 0.00000000000000000000, 4.00000000000000000000, 4.00000000000000000000, 1.00000000000000000000, 0.00000000000000000000, 4.00000000000000000000, 4.00000000000000000000, 0.00000000000000000000, 0.00000000000000000000, 4.00000000000000000000, 4.00000000000000000000
44.00000000000000000000, 0.00000000000000000000, 4240.51269531250000000000, 4616.92285156250000000000, 4226.66650390625000000000, 4180.00000000000000000000, 4156.92285156250000000000, 4151.28173828125000000000, 4216.41015625000000000000, 4217.43603515625000000000, 4153.84619140625000000000, 4152.82031250000000000000, 4168.20507812500000000000, 4375.89746093750000000000, 4837.94873046875000000000, 4184.61523437500000000000, 0.00000000000000000000, 10243.00000000000000000000, 10227.00000000000000000000, 0.00000000000000000000, 0.00000000000000000000, 0.00000000000000000000, 1483.00000000000000000000, 635.00000000000000000000, 4.00000000000000000000, 0.00000000000000000000, 4.00000000000000000000, 4.00000000000000000000, 4.00000000000000000000, 0.00000000000000000000, 4.00000000000000000000, 4.00000000000000000000, 1.00000000000000000000, 0.00000000000000000000, 4.00000000000000000000, 4.00000000000000000000, 0.00000000000000000000, 0.00000000000000000000, 4.00000000000000000000, 4.00000000000000000000
45.00000000000000000000, 0.00000000000000000000, 4241.53857421875000000000, 4614.35888671875000000000, 4229.74365234375000000000, 4178.97412109375000000000, 4164.61523437500000000000, 4149.23046875000000000000, 4222.56396484375000000000, 4229.23046875000000000000, 4155.38427734375000000000, 4152.82031250000000000000, 4168.71777343750000000000, 4375.38427734375000000000, 4828.20507812500000000000, 4191.79492187500000000000, 0.00000000000000000000, 10244.00000000000000000000, 10230.00000000000000000000, 0.00000000000000000000, 0.00000000000000000000, 0.00000000000000000000, 1483.00000000000000000000, 538.00000000000000000000, 4.00000000000000000000, 0.00000000000000000000, 4.00000000000000000000, 4.00000000000000000000, 4.00000000000000000000, 0.00000000000000000000, 4.00000000000000000000, 4.00000000000000000000, 1.00000000000000000000, 0.00000000000000000000, 4.00000000000000000000, 4.00000000000000000000, 0.00000000000000000000, 0.00000000000000000000, 4.00000000000000000000, 4.00000000000000000000
46.00000000000000000000, 0.00000000000000000000, 4242.56396484375000000000, 4613.33300781250000000000, 4231.28173828125000000000, 4175.38427734375000000000, 4168.71777343750000000000, 4145.64111328125000000000, 4224.61523437500000000000, 4236.41015625000000000000, 4157.94873046875000000000, 4153.33300781250000000000, 4166.15380859375000000000, 4372.30761718750000000000, 4815.89746093750000000000, 4202.56396484375000000000, 0.00000000000000000000, 10244.00000000000000000000, 10230.00000000000000000000, 0.00000000000000000000, 0.00000000000000000000, 0.00000000000000000000, 1483.00000000000000000000, 541.00000000000000000000, 4.00000000000000000000, 0.00000000000000000000, 4.00000000000000000000, 4.00000000000000000000, 4.00000000000000000000, 0.00000000000000000000, 4.00000000000000000000, 4.00000000000000000000, 1.00000000000000000000, 0.00000000000000000000, 4.00000000000000000000, 4.00000000000000000000, 0.00000000000000000000, 0.00000000000000000000, 4.00000000000000000000, 4.00000000000000000000
47.00000000000000000000, 0.00000000000000000000, 4240.51269531250000000000, 4612.30761718750000000000, 4227.69238281250000000000, 4172.82031250000000000000, 4169.23046875000000000000, 4144.10253906250000000000, 4218.97412109375000000000, 4234.35888671875000000000, 4159.48730468750000000000, 4153.84619140625000000000, 4162.05126953125000000000, 4369.23046875000000000000, 4797.43554687500000000000, 4206.15380859375000000000, 0.00000000000000000000, 10244.00000000000000000000, 10230.00000000000000000000, 0.00000000000000000000, 0.00000000000000000000, 0.00000000000000000000, 1483.00000000000000000000, 545.00000000000000000000, 4.00000000000000000000, 0.00000000000000000000, 4.00000000000000000000, 4.00000000000000000000, 4.00000000000000000000, 0.00000000000000000000, 4.00000000000000000000, 4.00000000000000000000, 1.00000000000000000000, 0.00000000000000000000, 4.00000000000000000000, 4.00000000000000000000, 0.00000000000000000000, 0.00000000000000000000, 4.00000000000000000000, 4.00000000000000000000
48.00000000000000000000, 0.00000000000000000000, 4235.89746093750000000000, 4611.28173828125000000000, 4220.51269531250000000000, 4173.33300781250000000000, 4168.71777343750000000000, 4146.15380859375000000000, 4209.74365234375000000000, 4226.15380859375000000000, 4160.00000000000000000000, 4154.35888671875000000000, 4159.48730468750000000000, 4367.17919921875000000000, 4777.94873046875000000000, 4200.00000000000000000000, 0.00000000000000000000, 10244.00000000000000000000, 10230.00000000000000000000, 0.00000000000000000000, 0.00000000000000000000, 0.00000000000000000000, 1483.00000000000000000000, 549.00000000000000000000, 4.00000000000000000000, 0.00000000000000000000, 4.00000000000000000000, 4.00000000000000000000, 4.00000000000000000000, 0.00000000000000000000, 4.00000000000000000000, 4.00000000000000000000, 1.00000000000000000000, 0.00000000000000000000, 4.00000000000000000000, 4.00000000000000000000, 0.00000000000000000000, 0.00000000000000000000, 4.00000000000000000000, 4.00000000000000000000
49.00000000000000000000, 0.00000000000000000000, 4232.82031250000000000000, 4609.74365234375000000000, 4214.87158203125000000000, 4175.89746093750000000000, 4168.20507812500000000000, 4149.23046875000000000000, 4204.10253906250000000000, 4221.02539062500000000000, 4159.48730468750000000000, 4155.38427734375000000000, 4159.48730468750000000000, 4365.12792968750000000000, 4763.07666015625000000000, 4191.28173828125000000000, 0.00000000000000000000, 10244.00000000000000000000, 10227.00000000000000000000, 0.00000000000000000000, 0.00000000000000000000, 0.00000000000000000000, 1483.00000000000000000000, 553.00000000000000000000, 4.00000000000000000000, 0.00000000000000000000, 4.00000000000000000000, 4.00000000000000000000, 4.00000000000000000000, 0.00000000000000000000, 4.00000000000000000000, 4.00000000000000000000, 1.00000000000000000000, 0.00000000000000000000, 4.00000000000000000000, 4.00000000000000000000, 0.00000000000000000000, 0.00000000000000000000, 4.00000000000000000000, 4.00000000000000000000
50.00000000000000000000, 0.00000000000000000000, 4233.84619140625000000000, 4606.15380859375000000000, 4215.38427734375000000000, 4177.94873046875000000000, 4167.17919921875000000000, 4149.74365234375000000000, 4206.66650390625000000000, 4223.07666015625000000000, 4159.48730468750000000000, 4155.89746093750000000000, 4162.05126953125000000000, 4361.53857421875000000000, 4756.92285156250000000000, 4188.20507812500000000000, 0.00000000000000000000, 10244.00000000000000000000, 10227.00000000000000000000, 0.00000000000000000000, 0.00000000000000000000, 0.00000000000000000000, 1483.00000000000000000000, 556.00000000000000000000, 4.00000000000000000000, 0.00000000000000000000, 4.00000000000000000000, 4.00000000000000000000, 4.00000000000000000000, 0.00000000000000000000, 4.00000000000000000000, 4.00000000000000000000, 1.00000000000000000000, 0.00000000000000000000, 4.00000000000000000000, 4.00000000000000000000, 0.00000000000000000000, 0.00000000000000000000, 4.00000000000000000000, 4.00000000000000000000
51.00000000000000000000, 0.00000000000000000000, 4236.92285156250000000000, 4601.53857421875000000000, 4221.02539062500000000000, 4176.92285156250000000000, 4166.66650390625000000000, 4147.69238281250000000000, 4214.35888671875000000000, 4230.25634765625000000000, 4159.48730468750000000000, 4155.38427734375000000000, 4165.12792968750000000000, 4357.94873046875000000000, 4754.87158203125000000000, 4191.28173828125000000000, 0.00000000000000000000, 10244.00000000000000000000, 10227.00000000000000000000, 0.00000000000000000000, 0.00000000000000000000, 0.00000000000000000000, 1483.00000000000000000000, 560.00000000000000000000, 4.00000000000000000000, 0.00000000000000000000, 4.00000000000000000000, 4.00000000000000000000, 4.00000000000000000000, 0.00000000000000000000, 4.00000000000000000000, 4.00000000000000000000, 1.00000000000000000000, 0.00000000000000000000, 4.00000000000000000000, 4.00000000000000000000, 0.00000000000000000000, 0.00000000000000000000, 4.00000000000000000000, 4.00000000000000000000
52.00000000000000000000, 0.00000000000000000000, 4238.97412109375000000000, 4597.94873046875000000000, 4226.66650390625000000000, 4175.38427734375000000000, 4168.71777343750000000000, 4145.64111328125000000000, 4220.51269531250000000000, 4235.38427734375000000000, 4160.00000000000000000000, 4154.87158203125000000000, 4166.66650390625000000000, 4356.41015625000000000000, 4750.76904296875000000000, 4193.84619140625000000000, 0.00000000000000000000, 10244.00000000000000000000, 10227.00000000000000000000, 0.00000000000000000000, 0.00000000000000000000, 0.00000000000000000000, 1483.00000000000000000000, 564.00000000000000000000, 4.00000000000000000000, 0.00000000000000000000, 4.00000000000000000000, 4.00000000000000000000, 4.00000000000000000000, 0.00000000000000000000, 4.00000000000000000000, 4.00000000000000000000, 1.00000000000000000000, 0.00000000000000000000, 4.00000000000000000000, 4.00000000000000000000, 0.00000000000000000000, 0.00000000000000000000, 4.00000000000000000000, 4.00000000000000000000
53.00000000000000000000, 0.00000000000000000000, 4236.92285156250000000000, 4598.46142578125000000000, 4228.20507812500000000000, 4173.84619140625000000000, 4173.84619140625000000000, 4146.15380859375000000000, 4219.48730468750000000000, 4232.82031250000000000000, 4160.00000000000000000000, 4154.35888671875000000000, 4167.17919921875000000000, 4358.97412109375000000000, 4740.00000000000000000000, 4190.76904296875000000000, 0.00000000000000000000, 10244.00000000000000000000, 10225.00000000000000000000, 0.00000000000000000000, 0.00000000000000000000, 0.00000000000000000000, 1483.00000000000000000000, 567.00000000000000000000, 4.00000000000000000000, 0.00000000000000000000, 4.00000000000000000000, 4.00000000000000000000, 4.00000000000000000000, 0.00000000000000000000, 4.00000000000000000000, 4.00000000000000000000, 1.00000000000000000000, 0.00000000000000000000, 4.00000000000000000000, 4.00000000000000000000, 0.00000000000000000000, 0.00000000000000000000, 4.00000000000000000000, 4.00000000000000000000
54.00000000000000000000, 0.00000000000000000000, 4232.82031250000000000000, 4603.58984375000000000000, 4224.61523437500000000000, 4173.84619140625000000000, 4179.48730468750000000000, 4148.20507812500000000000, 4212.82031250000000000000, 4225.12792968750000000000, 4158.46142578125000000000, 4154.35888671875000000000, 4167.17919921875000000000, 4361.53857421875000000000, 4724.10253906250000000000, 4185.12792968750000000000, 0.00000000000000000000, 10244.00000000000000000000, 10225.00000000000000000000, 0.00000000000000000000, 0.00000000000000000000, 0.00000000000000000000, 1483.00000000000000000000, 571.00000000000000000000, 4.00000000000000000000, 0.00000000000000000000, 4.00000000000000000000, 4.00000000000000000000, 4.00000000000000000000, 0.00000000000000000000, 4.00000000000000000000, 4.00000000000000000000, 1.00000000000000000000, 0.00000000000000000000, 4.00000000000000000000, 4.00000000000000000000, 0.00000000000000000000, 0.00000000000000000000, 4.00000000000000000000, 4.00000000000000000000
55.00000000000000000000, 0.00000000000000000000, 4232.30761718750000000000, 4608.20507812500000000000, 4220.00000000000000000000, 4174.35888671875000000000, 4179.48730468750000000000, 4150.25634765625000000000, 4205.64111328125000000000, 4217.43603515625000000000, 4156.92285156250000000000, 4154.35888671875000000000, 4166.66650390625000000000, 4361.53857421875000000000, 4708.71777343750000000000, 4183.07666015625000000000, 0.00000000000000000000, 10244.00000000000000000000, 10225.00000000000000000000, 0.00000000000000000000, 0.00000000000000000000, 0.00000000000000000000, 1483.00000000000000000000, 575.00000000000000000000, 4.00000000000000000000, 0.00000000000000000000, 4.00000000000000000000, 4.00000000000000000000, 4.00000000000000000000, 0.00000000000000000000, 4.00000000000000000000, 4.00000000000000000000, 1.00000000000000000000, 0.00000000000000000000, 4.00000000000000000000, 4.00000000000000000000, 0.00000000000000000000, 0.00000000000000000000, 4.00000000000000000000, 4.00000000000000000000
56.00000000000000000000, 0.00000000000000000000, 4236.92285156250000000000, 4608.71777343750000000000, 4217.94873046875000000000, 4174.35888671875000000000, 4171.28173828125000000000, 4150.25634765625000000000, 4202.05126953125000000000, 4214.35888671875000000000, 4155.38427734375000000000, 4154.87158203125000000000, 4166.15380859375000000000, 4358.97412109375000000000, 4697.94873046875000000000, 4186.66650390625000000000, 0.00000000000000000000, 10244.00000000000000000000, 10225.00000000000000000000, 0.00000000000000000000, 0.00000000000000000000, 0.00000000000000000000, 1483.00000000000000000000, 579.00000000000000000000, 4.00000000000000000000, 0.00000000000000000000, 4.00000000000000000000, 4.00000000000000000000, 4.00000000000000000000, 0.00000000000000000000, 4.00000000000000000000, 4.00000000000000000000, 1.00000000000000000000, 0.00000000000000000000, 4.00000000000000000000, 4.00000000000000000000, 0.00000000000000000000, 0.00000000000000000000, 4.00000000000000000000, 4.00000000000000000000
57.00000000000000000000, 0.00000000000000000000, 4245.12792968750000000000, 4603.58984375000000000000, 4220.51269531250000000000, 4175.38427734375000000000, 4161.02539062500000000000, 4149.74365234375000000000, 4201.53857421875000000000, 4215.38427734375000000000, 4155.38427734375000000000, 4154.35888671875000000000, 4165.64111328125000000000, 4355.38427734375000000000, 4690.25634765625000000000, 4190.76904296875000000000, 0.00000000000000000000, 10241.00000000000000000000, 10223.00000000000000000000, 0.00000000000000000000, 0.00000000000000000000, 0.00000000000000000000, 1483.00000000000000000000, 582.00000000000000000000, 4.00000000000000000000, 0.00000000000000000000, 4.00000000000000000000, 4.00000000000000000000, 4.00000000000000000000, 0.00000000000000000000, 4.00000000000000000000, 4.00000000000000000000, 1.00000000000000000000, 0.00000000000000000000, 4.00000000000000000000, 4.00000000000000000000, 0.00000000000000000000, 0.00000000000000000000, 4.00000000000000000000, 4.00000000000000000000
58.00000000000000000000, 0.00000000000000000000, 4253.84619140625000000000, 4598.46142578125000000000, 4225.64111328125000000000, 4177.43603515625000000000, 4160.00000000000000000000, 4149.23046875000000000000, 4204.61523437500000000000, 4217.94873046875000000000, 4156.92285156250000000000, 4154.35888671875000000000, 4165.64111328125000000000, 4352.82031250000000000000, 4685.12792968750000000000, 4190.76904296875000000000, 0.00000000000000000000, 10241.00000000000000000000, 10223.00000000000000000000, 0.00000000000000000000, 0.00000000000000000000, 0.00000000000000000000, 1483.00000000000000000000, 586.00000000000000000000, 4.00000000000000000000, 0.00000000000000000000, 4.00000000000000000000, 4.00000000000000000000, 4.00000000000000000000, 0.00000000000000000000, 4.00000000000000000000, 4.00000000000000000000, 1.00000000000000000000, 0.00000000000000000000, 4.00000000000000000000, 4.00000000000000000000, 0.00000000000000000000, 0.00000000000000000000, 4.00000000000000000000, 4.00000000000000000000
59.00000000000000000000, 0.00000000000000000000, 4262.56396484375000000000, 4598.46142578125000000000, 4232.82031250000000000000, 4178.97412109375000000000, 4176.41015625000000000000, 4149.74365234375000000000, 4210.76904296875000000000, 4222.05126953125000000000, 4160.00000000000000000000, 4154.35888671875000000000, 4166.15380859375000000000, 4350.25634765625000000000, 4680.51269531250000000000, 4188.20507812500000000000, 0.00000000000000000000, 10241.00000000000000000000, 10223.00000000000000000000, 0.00000000000000000000, 0.00000000000000000000, 0.00000000000000000000, 1483.00000000000000000000, 590.00000000000000000000, 4.00000000000000000000, 0.00000000000000000000, 4.00000000000000000000, 4.00000000000000000000, 4.00000000000000000000, 0.00000000000000000000, 4.00000000000000000000, 4.00000000000000000000, 1.00000000000000000000, 0.00000000000000000000, 4.00000000000000000000, 4.00000000000000000000, 0.00000000000000000000, 0.00000000000000000000, 4.00000000000000000000, 4.00000000000000000000
60.00000000000000000000, 0.00000000000000000000, 4269.23046875000000000000, 4605.12792968750000000000, 4240.00000000000000000000, 4178.97412109375000000000, 4204.61523437500000000000, 4148.71777343750000000000, 4218.97412109375000000000, 4226.66650390625000000000, 4162.56396484375000000000, 4155.38427734375000000000, 4165.64111328125000000000, 4347.17919921875000000000, 4676.41015625000000000000, 4186.66650390625000000000, 0.00000000000000000000, 10241.00000000000000000000, 10223.00000000000000000000, 0.00000000000000000000, 0.00000000000000000000, 0.00000000000000000000, 1483.00000000000000000000, 593.00000000000000000000, 4.00000000000000000000, 0.00000000000000000000, 4.00000000000000000000, 4.00000000000000000000, 4.00000000000000000000, 0.00000000000000000000, 4.00000000000000000000, 4.00000000000000000000, 1.00000000000000000000, 0.00000000000000000000, 4.00000000000000000000, 4.00000000000000000000, 0.00000000000000000000, 0.00000000000000000000, 4.00000000000000000000, 4.00000000000000000000
61.00000000000000000000, 0.00000000000000000000, 4271.79492187500000000000, 4613.84619140625000000000, 4244.10253906250000000000, 4176.92285156250000000000, 4227.69238281250000000000, 4148.20507812500000000000, 4225.12792968750000000000, 4229.74365234375000000000, 4163.58984375000000000000, 4156.41015625000000000000, 4164.10253906250000000000, 4344.61523437500000000000, 4667.69238281250000000000, 4187.69238281250000000000, 0.00000000000000000000, 10238.00000000000000000000, 10224.00000000000000000000, 0.00000000000000000000, 0.00000000000000000000, 0.00000000000000000000, 1483.00000000000000000000, 597.00000000000000000000, 4.00000000000000000000, 0.00000000000000000000, 4.00000000000000000000, 4.00000000000000000000, 4.00000000000000000000, 0.00000000000000000000, 4.00000000000000000000, 4.00000000000000000000, 1.00000000000000000000, 0.00000000000000000000, 4.00000000000000000000, 4.00000000000000000000, 0.00000000000000000000, 0.00000000000000000000, 4.00000000000000000000, 4.00000000000000000000
62.00000000000000000000, 0.00000000000000000000, 4266.66650390625000000000, 4617.43554687500000000000, 4242.05126953125000000000, 4175.38427734375000000000, 4231.79492187500000000000, 4148.71777343750000000000, 4225.12792968750000000000, 4228.71777343750000000000, 4163.07666015625000000000, 4156.41015625000000000000, 4162.56396484375000000000, 4344.61523437500000000000, 4651.28173828125000000000, 4189.23046875000000000000, 0.00000000000000000000, 10238.00000000000000000000, 10224.00000000000000000000, 0.00000000000000000000, 0.00000000000000000000, 0.00000000000000000000, 1483.00000000000000000000, 601.00000000000000000000, 4.00000000000000000000, 0.00000000000000000000, 4.00000000000000000000, 4.00000000000000000000, 4.00000000000000000000, 0.00000000000000000000, 4.00000000000000000000, 4.00000000000000000000, 1.00000000000000000000, 0.00000000000000000000, 4.00000000000000000000, 4.00000000000000000000, 0.00000000000000000000, 0.00000000000000000000, 4.00000000000000000000, 4.00000000000000000000
63.00000000000000000000, 0.00000000000000000000, 4256.41015625000000000000, 4612.30761718750000000000, 4234.35888671875000000000, 4175.89746093750000000000, 4214.35888671875000000000, 4150.25634765625000000000, 4219.48730468750000000000, 4225.12792968750000000000, 4161.53857421875000000000, 4155.89746093750000000000, 4162.05126953125000000000, 4347.17919921875000000000, 4629.23046875000000000000, 4190.76904296875000000000, 0.00000000000000000000, 10238.00000000000000000000, 10224.00000000000000000000, 0.00000000000000000000, 0.00000000000000000000, 0.00000000000000000000, 1483.00000000000000000000, 605.00000000000000000000, 4.00000000000000000000, 0.00000000000000000000, 4.00000000000000000000, 4.00000000000000000000, 4.00000000000000000000, 0.00000000000000000000, 4.00000000000000000000, 4.00000000000000000000, 1.00000000000000000000, 0.00000000000000000000, 4.00000000000000000000, 4.00000000000000000000, 0.00000000000000000000, 0.00000000000000000000, 4.00000000000000000000, 4.00000000000000000000
64.00000000000000000000, 0.00000000000000000000, 4247.17919921875000000000, 4602.05126953125000000000, 4227.17919921875000000000, 4176.92285156250000000000, 4190.25634765625000000000, 4151.28173828125000000000, 4214.35888671875000000000, 4223.07666015625000000000, 4162.05126953125000000000, 4154.87158203125000000000, 4162.56396484375000000000, 4349.74365234375000000000, 4608.20507812500000000000, 4193.84619140625000000000, 0.00000000000000000000, 10238.00000000000000000000, 10224.00000000000000000000, 0.00000000000000000000, 0.00000000000000000000, 0.00000000000000000000, 1483.00000000000000000000, 608.00000000000000000000, 4.00000000000000000000, 0.00000000000000000000, 4.00000000000000000000, 4.00000000000000000000, 4.00000000000000000000, 0.00000000000000000000, 4.00000000000000000000, 4.00000000000000000000, 1.00000000000000000000, 0.00000000000000000000, 4.00000000000000000000, 4.00000000000000000000, 0.00000000000000000000, 0.00000000000000000000, 4.00000000000000000000, 4.00000000000000000000
92.00000000000000000000, 0.00000000000000000000, 4257.94873046875000000000, 4448.20507812500000000000, 4223.58984375000000000000, 4170.76904296875000000000, 4187.69238281250000000000, 4148.71777343750000000000, 4207.17919921875000000000, 4217.43603515625000000000, 4161.53857421875000000000, 4151.79492187500000000000, 4158.46142578125000000000, 4325.12792968750000000000, 3837.43579101562500000000, 4200.00000000000000000000, 0.00000000000000000000, 10238.00000000000000000000, 10224.00000000000000000000, 0.00000000000000000000, 0.00000000000000000000, 0.00000000000000000000, 1483.00000000000000000000, 612.00000000000000000000, 4.00000000000000000000, 0.00000000000000000000, 4.00000000000000000000, 4.00000000000000000000, 4.00000000000000000000, 0.00000000000000000000, 4.00000000000000000000, 4.00000000000000000000, 1.00000000000000000000, 0.00000000000000000000, 4.00000000000000000000, 4.00000000000000000000, 0.00000000000000000000, 0.00000000000000000000, 4.00000000000000000000, 4.00000000000000000000
93.00000000000000000000, 0.00000000000000000000, 4255.38427734375000000000, 4442.56396484375000000000, 4223.07666015625000000000, 4171.79492187500000000000, 4184.61523437500000000000, 4146.66650390625000000000, 4208.20507812500000000000, 4219.48730468750000000000, 4160.51269531250000000000, 4151.79492187500000000000, 4157.94873046875000000000, 4328.20507812500000000000, 3809.74340820312500000000, 4196.41015625000000000000, 0.00000000000000000000, 10226.00000000000000000000, 10230.00000000000000000000, 0.00000000000000000000, 0.00000000000000000000, 0.00000000000000000000, 1483.00000000000000000000, 616.00000000000000000000, 4.00000000000000000000, 0.00000000000000000000, 4.00000000000000000000, 4.00000000000000000000, 4.00000000000000000000, 0.00000000000000000000, 4.00000000000000000000, 4.00000000000000000000, 1.00000000000000000000, 0.00000000000000000000, 4.00000000000000000000, 4.00000000000000000000, 0.00000000000000000000, 0.00000000000000000000, 4.00000000000000000000, 4.00000000000000000000
94.00000000000000000000, 0.00000000000000000000, 4252.30761718750000000000, 4436.41015625000000000000, 4221.02539062500000000000, 4172.82031250000000000000, 4183.58984375000000000000, 4146.66650390625000000000, 4209.74365234375000000000, 4219.48730468750000000000, 4157.94873046875000000000, 4151.28173828125000000000, 4157.94873046875000000000, 4334.35888671875000000000, 3782.05126953125000000000, 4191.79492187500000000000, 0.00000000000000000000, 10226.00000000000000000000, 10230.00000000000000000000, 0.00000000000000000000, 0.00000000000000000000, 0.00000000000000000000, 1483.00000000000000000000, 619.00000000000000000000, 4.00000000000000000000, 0.00000000000000000000, 4.00000000000000000000, 4.00000000000000000000, 4.00000000000000000000, 0.00000000000000000000, 4.00000000000000000000, 4.00000000000000000000, 1.00000000000000000000, 0.00000000000000000000, 4.00000000000000000000, 4.00000000000000000000, 0.00000000000000000000, 0.00000000000000000000, 4.00000000000000000000, 4.00000000000000000000
95.00000000000000000000, 0.00000000000000000000, 4252.82031250000000000000, 4430.25634765625000000000, 4220.51269531250000000000, 4172.30761718750000000000, 4183.07666015625000000000, 4147.69238281250000000000, 4211.28173828125000000000, 4217.94873046875000000000, 4155.89746093750000000000, 4151.79492187500000000000, 4157.43603515625000000000, 4338.97412109375000000000, 3758.97436523437500000000, 4189.74365234375000000000, 0.00000000000000000000, 10226.00000000000000000000, 10230.00000000000000000000, 0.00000000000000000000, 0.00000000000000000000, 0.00000000000000000000, 1483.00000000000000000000, 623.00000000000000000000, 4.00000000000000000000, 0.00000000000000000000, 4.00000000000000000000, 4.00000000000000000000, 4.00000000000000000000, 0.00000000000000000000, 4.00000000000000000000, 4.00000000000000000000, 1.00000000000000000000, 0.00000000000000000000, 4.00000000000000000000, 4.00000000000000000000, 0.00000000000000000000, 0.00000000000000000000, 4.00000000000000000000, 4.00000000000000000000
96.00000000000000000000, 0.00000000000000000000, 4255.89746093750000000000, 4423.58984375000000000000, 4221.02539062500000000000, 4168.71777343750000000000, 4184.61523437500000000000, 4147.69238281250000000000, 4212.30761718750000000000, 4216.92285156250000000000, 4156.92285156250000000000, 4151.79492187500000000000, 4157.94873046875000000000, 4340.00000000000000000000, 3742.56396484375000000000, 4190.25634765625000000000, 0.00000000000000000000, 10226.00000000000000000000, 10230.00000000000000000000, 0.00000000000000000000, 0.00000000000000000000, 0.00000000000000000000, 1483.00000000000000000000, 627.00000000000000000000, 4.00000000000000000000, 0.00000000000000000000, 4.00000000000000000000, 4.00000000000000000000, 4.00000000000000000000, 0.00000000000000000000, 4.00000000000000000000, 4.00000000000000000000, 1.00000000000000000000, 0.00000000000000000000, 4.00000000000000000000, 4.00000000000000000000, 0.00000000000000000000, 0.00000000000000000000, 4.00000000000000000000, 4.00000000000000000000
97.00000000000000000000, 0.00000000000000000000, 4257.94873046875000000000, 4414.35888671875000000000, 4222.05126953125000000000, 4165.64111328125000000000, 4188.20507812500000000000, 4147.17919921875000000000, 4209.74365234375000000000, 4214.35888671875000000000, 4158.97412109375000000000, 4151.79492187500000000000, 4158.97412109375000000000, 4338.97412109375000000000, 3729.74340820312500000000, 4191.79492187500000000000, 0.00000000000000000000, 10225.00000000000000000000, 10231.00000000000000000000, 0.00000000000000000000, 0.00000000000000000000, 0.00000000000000000000, 1483.00000000000000000000, 630.00000000000000000000, 4.00000000000000000000, 0.00000000000000000000, 4.00000000000000000000, 4.00000000000000000000, 4.00000000000000000000, 0.00000000000000000000, 4.00000000000000000000, 4.00000000000000000000, 1.00000000000000000000, 0.00000000000000000000, 4.00000000000000000000, 4.00000000000000000000, 0.00000000000000000000, 0.00000000000000000000, 4.00000000000000000000, 4.00000000000000000000
98.00000000000000000000, 0.00000000000000000000, 4254.87158203125000000000, 4402.05126953125000000000, 4221.02539062500000000000, 4164.61523437500000000000, 4192.30761718750000000000, 4148.71777343750000000000, 4203.07666015625000000000, 4210.76904296875000000000, 4161.02539062500000000000, 4151.79492187500000000000, 4158.97412109375000000000, 4337.94873046875000000000, 3714.87158203125000000000, 4190.25634765625000000000, 0.00000000000000000000, 10225.00000000000000000000, 10231.00000000000000000000, 0.00000000000000000000, 0.00000000000000000000, 0.00000000000000000000, 1483.00000000000000000000, 634.00000000000000000000, 4.00000000000000000000, 0.00000000000000000000, 4.00000000000000000000, 4.00000000000000000000, 4.00000000000000000000, 0.00000000000000000000, 4.00000000000000000000, 4.00000000000000000000, 1.00000000000000000000, 0.00000000000000000000, 4.00000000000000000000, 4.00000000000000000000, 0.00000000000000000000, 0.00000000000000000000, 4.00000000000000000000, 4.00000000000000000000
99.00000000000000000000, 0.00000000000000000000, 4248.71777343750000000000, 4389.23046875000000000000, 4217.43603515625000000000, 4165.64111328125000000000, 4195.38427734375000000000, 4151.28173828125000000000, 4195.89746093750000000000, 4206.15380859375000000000, 4161.02539062500000000000, 4151.28173828125000000000, 4156.92285156250000000000, 4338.97412109375000000000, 3696.92309570312500000000, 4187.17919921875000000000, 0.00000000000000000000, 10225.00000000000000000000, 10231.00000000000000000000, 0.00000000000000000000, 0.00000000000000000000, 0.00000000000000000000, 1483.00000000000000000000, 538.00000000000000000000, 4.00000000000000000000, 0.00000000000000000000, 4.00000000000000000000, 4.00000000000000000000, 4.00000000000000000000, 0.00000000000000000000, 4.00000000000000000000, 4.00000000000000000000, 1.00000000000000000000, 0.00000000000000000000, 4.00000000000000000000, 4.00000000000000000000, 0.00000000000000000000, 0.00000000000000000000, 4.00000000000000000000, 4.00000000000000000000
100.00000000000000000000, 0.00000000000000000000, 4243.07666015625000000000, 4377.94873046875000000000, 4213.33300781250000000000, 4166.66650390625000000000, 4194.87158203125000000000, 4153.33300781250000000000, 4191.79492187500000000000, 4204.10253906250000000000, 4159.48730468750000000000, 4151.28173828125000000000, 4153.33300781250000000000, 4340.00000000000000000000, 3678.97436523437500000000, 4185.12792968750000000000, 0.00000000000000000000, 10225.00000000000000000000, 10231.00000000000000000000, 0.00000000000000000000, 0.00000000000000000000, 0.00000000000000000000, 1483.00000000000000000000, 541.00000000000000000000, 4.00000000000000000000, 0.00000000000000000000, 4.00000000000000000000, 4.00000000000000000000, 4.00000000000000000000, 0.00000000000000000000, 4.00000000000000000000, 4.00000000000000000000, 1.00000000000000000000, 0.00000000000000000000, 4.00000000000000000000, 4.00000000000000000000, 0.00000000000000000000, 0.00000000000000000000, 4.00000000000000000000, 4.00000000000000000000
101.00000000000000000000, 0.00000000000000000000, 4243.07666015625000000000, 4368.71777343750000000000, 4211.28173828125000000000, 4165.12792968750000000000, 4193.33300781250000000000, 4151.28173828125000000000, 4193.84619140625000000000, 4205.64111328125000000000, 4158.46142578125000000000, 4151.79492187500000000000, 4150.76904296875000000000, 4339.48730468750000000000, 3665.12817382812500000000, 4186.15380859375000000000, 0.00000000000000000000, 10222.00000000000000000000, 10231.00000000000000000000, 0.00000000000000000000, 0.00000000000000000000, 0.00000000000000000000, 1483.00000000000000000000, 545.00000000000000000000, 4.00000000000000000000, 0.00000000000000000000, 4.00000000000000000000, 4.00000000000000000000, 4.00000000000000000000, 0.00000000000000000000, 4.00000000000000000000, 4.00000000000000000000, 1.00000000000000000000, 0.00000000000000000000, 4.00000000000000000000, 4.00000000000000000000, 0.00000000000000000000, 0.00000000000000000000, 4.00000000000000000000, 4.00000000000000000000
102.00000000000000000000, 0.00000000000000000000, 4245.64111328125000000000, 4359.48730468750000000000, 4210.76904296875000000000, 4162.56396484375000000000, 4191.79492187500000000000, 4147.69238281250000000000, 4197.94873046875000000000, 4208.71777343750000000000, 4158.46142578125000000000, 4152.30761718750000000000, 4151.28173828125000000000, 4337.94873046875000000000, 3654.87182617187500000000, 4188.20507812500000000000, 0.00000000000000000000, 10222.00000000000000000000, 10231.00000000000000000000, 0.00000000000000000000, 0.00000000000000000000, 0.00000000000000000000, 1483.00000000000000000000, 549.00000000000000000000, 4.00000000000000000000, 0.00000000000000000000, 4.00000000000000000000, 4.00000000000000000000, 4.00000000000000000000, 0.00000000000000000000, 4.00000000000000000000, 4.00000000000000000000, 1.00000000000000000000, 0.00000000000000000000, 4.00000000000000000000, 4.00000000000000000000, 0.00000000000000000000, 0.00000000000000000000, 4.00000000000000000000, 4.00000000000000000000
103.00000000000000000000, 0.00000000000000000000, 4247.17919921875000000000, 4347.69238281250000000000, 4209.23046875000000000000, 4162.05126953125000000000, 4191.28173828125000000000, 4145.12792968750000000000, 4200.00000000000000000000, 4209.23046875000000000000, 4160.51269531250000000000, 4153.33300781250000000000, 4154.87158203125000000000, 4337.43603515625000000000, 3646.15380859375000000000, 4187.69238281250000000000, 0.00000000000000000000, 10222.00000000000000000000, 10231.00000000000000000000, 0.00000000000000000000, 0.00000000000000000000, 0.00000000000000000000, 1483.00000000000000000000, 553.00000000000000000000, 4.00000000000000000000, 0.00000000000000000000, 4.00000000000000000000, 4.00000000000000000000, 4.00000000000000000000, 0.00000000000000000000, 4.00000000000000000000, 4.00000000000000000000, 1.00000000000000000000, 0.00000000000000000000, 4.00000000000000000000, 4.00000000000000000000, 0.00000000000000000000, 0.00000000000000000000, 4.00000000000000000000, 4.00000000000000000000
104.00000000000000000000, 0.00000000000000000000, 4245.64111328125000000000, 4332.30761718750000000000, 4207.69238281250000000000, 4163.58984375000000000000, 4191.79492187500000000000, 4146.15380859375000000000, 4198.97412109375000000000, 4208.20507812500000000000, 4163.58984375000000000000, 4153.84619140625000000000, 4156.92285156250000000000, 4338.46142578125000000000, 3637.43579101562500000000, 4183.58984375000000000000, 0.00000000000000000000, 10222.00000000000000000000, 10231.00000000000000000000, 0.00000000000000000000, 0.00000000000000000000, 0.00000000000000000000, 1483.00000000000000000000, 556.00000000000000000000, 4.00000000000000000000, 0.00000000000000000000, 4.00000000000000000000, 4.00000000000000000000, 4.00000000000000000000, 0.00000000000000000000, 4.00000000000000000000, 4.00000000000000000000, 1.00000000000000000000, 0.00000000000000000000, 4.00000000000000000000, 4.00000000000000000000, 0.00000000000000000000, 0.00000000000000000000, 4.00000000000000000000, 4.00000000000000000000
105.00000000000000000000, 0.00000000000000000000, 4243.07666015625000000000, 4315.89746093750000000000, 4207.69238281250000000000, 4165.12792968750000000000, 4192.82031250000000000000, 4149.23046875000000000000, 4198.46142578125000000000, 4207.69238281250000000000, 4165.12792968750000000000, 4153.33300781250000000000, 4156.41015625000000000000, 4338.46142578125000000000, 3629.74340820312500000000, 4180.00000000000000000000, 0.00000000000000000000, 10220.00000000000000000000, 10231.00000000000000000000, 0.00000000000000000000, 0.00000000000000000000, 0.00000000000000000000, 1483.00000000000000000000, 560.00000000000000000000, 4.00000000000000000000, 0.00000000000000000000, 4.00000000000000000000, 4.00000000000000000000, 4.00000000000000000000, 0.00000000000000000000, 4.00000000000000000000, 4.00000000000000000000, 1.00000000000000000000, 0.00000000000000000000, 4.00000000000000000000, 4.00000000000000000000, 0.00000000000000000000, 0.00000000000000000000, 4.00000000000000000000, 4.00000000000000000000
106.00000000000000000000, 0.00000000000000000000, 4242.05126953125000000000, 4300.00000000000000000000, 4208.71777343750000000000, 4163.58984375000000000000, 4192.30761718750000000000, 4150.25634765625000000000, 4199.48730468750000000000, 4209.23046875000000000000, 4163.58984375000000000000, 4152.82031250000000000000, 4153.33300781250000000000, 4337.43603515625000000000, 3624.10253906250000000000, 4178.46142578125000000000, 0.00000000000000000000, 10220.00000000000000000000, 10231.00000000000000000000, 0.00000000000000000000, 0.00000000000000000000, 0.00000000000000000000, 1483.00000000000000000000, 564.00000000000000000000, 4.00000000000000000000, 0.00000000000000000000, 4.00000000000000000000, 4.00000000000000000000, 4.00000000000000000000, 0.00000000000000000000, 4.00000000000000000000, 4.00000000000000000000, 1.00000000000000000000, 0.00000000000000000000, 4.00000000000000000000, 4.00000000000000000000, 0.00000000000000000000, 0.00000000000000000000, 4.00000000000000000000, 4.00000000000000000000
107.00000000000000000000, 0.00000000000000000000, 4242.05126953125000000000, 4285.12792968750000000000, 4208.20507812500000000000, 4160.00000000000000000000, 4188.71777343750000000000, 4149.23046875000000000000, 4200.51269531250000000000, 4209.74365234375000000000, 4158.97412109375000000000, 4151.79492187500000000000, 4151.79492187500000000000, 4335.89746093750000000000, 3618.97436523437500000000, 4176.92285156250000000000, 0.00000000000000000000, 10220.00000000000000000000, 10231.00000000000000000000, 0.00000000000000000000, 0.00000000000000000000, 0.00000000000000000000, 1483.00000000000000000000, 567.00000000000000000000, 4.00000000000000000000, 0.00000000000000000000, 4.00000000000000000000, 4.00000000000000000000, 4.00000000000000000000, 0.00000000000000000000, 4.00000000000000000000, 4.00000000000000000000, 1.00000000000000000000, 0.00000000000000000000, 4.00000000000000000000, 4.00000000000000000000, 0.00000000000000000000, 0.00000000000000000000, 4.00000000000000000000, 4.00000000000000000000
108.00000000000000000000, 0.00000000000000000000, 4238.97412109375000000000, 4269.74365234375000000000, 4203.58984375000000000000, 4157.94873046875000000000, 4181.02539062500000000000, 4147.17919921875000000000, 4196.92285156250000000000, 4205.12792968750000000000, 4152.82031250000000000000, 4151.79492187500000000000, 4152.30761718750000000000, 4335.89746093750000000000, 3611.28198242187500000000, 4172.82031250000000000000, 0.00000000000000000000, 10220.00000000000000000000, 10231.00000000000000000000, 0.00000000000000000000, 0.00000000000000000000, 0.00000000000000000000, 1483.00000000000000000000, 571.00000000000000000000, 4.00000000000000000000, 0.00000000000000000000, 4.00000000000000000000, 4.00000000000000000000, 4.00000000000000000000, 0.00000000000000000000, 4.00000000000000000000, 4.00000000000000000000, 1.00000000000000000000, 0.00000000000000000000, 4.00000000000000000000, 4.00000000000000000000, 0.00000000000000000000, 0.00000000000000000000, 4.00000000000000000000, 4.00000000000000000000
109.00000000000000000000, 0.00000000000000000000, 4232.30761718750000000000, 4253.84619140625000000000, 4196.41015625000000000000, 4158.97412109375000000000, 4172.82031250000000000000, 4146.66650390625000000000, 4188.71777343750000000000, 4196.41015625000000000000, 4149.74365234375000000000, 4152.30761718750000000000, 4154.35888671875000000000, 4337.94873046875000000000, 3601.53833007812500000000, 4164.61523437500000000000, 0.00000000000000000000, 10218.00000000000000000000, 10229.00000000000000000000, 0.00000000000000000000, 0.00000000000000000000, 0.00000000000000000000, 1483.00000000000000000000, 575.00000000000000000000, 4.00000000000000000000, 0.00000000000000000000, 4.00000000000000000000, 4.00000000000000000000, 4.00000000000000000000, 0.00000000000000000000, 4.00000000000000000000, 4.00000000000000000000, 1.00000000000000000000, 0.00000000000000000000, 4.00000000000000000000, 4.00000000000000000000, 0.00000000000000000000, 0.00000000000000000000, 4.00000000000000000000, 4.00000000000000000000
110.00000000000000000000, 0.00000000000000000000, 4226.66650390625000000000, 4239.48730468750000000000, 4191.79492187500000000000, 4161.53857421875000000000, 4170.76904296875000000000, 4146.66650390625000000000, 4182.05126953125000000000, 4189.23046875000000000000, 4151.28173828125000000000, 4152.82031250000000000000, 4155.38427734375000000000, 4338.97412109375000000000, 3594.35888671875000000000, 4158.46142578125000000000, 0.00000000000000000000, 10218.00000000000000000000, 10229.00000000000000000000, 0.00000000000000000000, 0.00000000000000000000, 0.00000000000000000000, 1483.00000000000000000000, 579.00000000000000000000, 4.00000000000000000000, 0.00000000000000000000, 4.00000000000000000000, 4.00000000000000000000, 4.00000000000000000000, 0.00000000000000000000, 4.00000000000000000000, 4.00000000000000000000, 1.00000000000000000000, 0.00000000000000000000, 4.00000000000000000000, 4.00000000000000000000, 0.00000000000000000000, 0.00000000000000000000, 4.00000000000000000000, 4.00000000000000000000
111.00000000000000000000, 0.00000000000000000000, 4227.17919921875000000000, 4227.69238281250000000000, 4193.33300781250000000000, 4161.02539062500000000000, 4178.97412109375000000000, 4146.66650390625000000000, 4183.07666015625000000000, 4190.25634765625000000000, 4155.38427734375000000000, 4153.33300781250000000000, 4155.38427734375000000000, 4337.94873046875000000000, 3594.87182617187500000000, 4158.97412109375000000000, 0.00000000000000000000, 10218.00000000000000000000, 10229.00000000000000000000, 0.00000000000000000000, 0.00000000000000000000, 0.00000000000000000000, 1483.00000000000000000000, 582.00000000000000000000, 4.00000000000000000000, 0.00000000000000000000, 4.00000000000000000000, 4.00000000000000000000, 4.00000000000000000000, 0.00000000000000000000, 4.00000000000000000000, 4.00000000000000000000, 1.00000000000000000000, 0.00000000000000000000, 4.00000000000000000000, 4.00000000000000000000, 0.00000000000000000000, 0.00000000000000000000, 4.00000000000000000000, 4.00000000000000000000
112.00000000000000000000, 0.00000000000000000000, 4232.82031250000000000000, 4217.94873046875000000000, 4198.97412109375000000000, 4158.46142578125000000000, 4191.28173828125000000000, 4147.17919921875000000000, 4189.23046875000000000000, 4197.43603515625000000000, 4158.46142578125000000000, 4153.33300781250000000000, 4154.87158203125000000000, 4334.87158203125000000000, 3600.00000000000000000000, 4164.10253906250000000000, 0.00000000000000000000, 10218.00000000000000000000, 10229.00000000000000000000, 0.00000000000000000000, 0.00000000000000000000, 0.00000000000000000000, 1483.00000000000000000000, 586.00000000000000000000, 4.00000000000000000000, 0.00000000000000000000, 4.00000000000000000000, 4.00000000000000000000, 4.00000000000000000000, 0.00000000000000000000, 4.00000000000000000000, 4.00000000000000000000, 1.00000000000000000000, 0.00000000000000000000, 4.00000000000000000000, 4.00000000000000000000, 0.00000000000000000000, 0.00000000000000000000, 4.00000000000000000000, 4.00000000000000000000
113.00000000000000000000, 0.00000000000000000000, 4237.94873046875000000000, 4208.20507812500000000000, 4202.56396484375000000000, 4155.38427734375000000000, 4196.41015625000000000000, 4147.69238281250000000000, 4193.84619140625000000000, 4203.07666015625000000000, 4158.46142578125000000000, 4152.82031250000000000000, 4154.35888671875000000000, 4333.33300781250000000000, 3603.58959960937500000000, 4167.69238281250000000000, 0.00000000000000000000, 10215.00000000000000000000, 10229.00000000000000000000, 0.00000000000000000000, 0.00000000000000000000, 0.00000000000000000000, 1483.00000000000000000000, 590.00000000000000000000, 4.00000000000000000000, 0.00000000000000000000, 4.00000000000000000000, 4.00000000000000000000, 4.00000000000000000000, 0.00000000000000000000, 4.00000000000000000000, 4.00000000000000000000, 1.00000000000000000000, 0.00000000000000000000, 4.00000000000000000000, 4.00000000000000000000, 0.00000000000000000000, 0.00000000000000000000, 4.00000000000000000000, 4.00000000000000000000
114.00000000000000000000, 0.00000000000000000000, 4237.94873046875000000000, 4196.41015625000000000000, 4201.02539062500000000000, 4154.87158203125000000000, 4190.25634765625000000000, 4148.71777343750000000000, 4192.30761718750000000000, 4201.02539062500000000000, 4156.41015625000000000000, 4152.82031250000000000000, 4153.84619140625000000000, 4334.35888671875000000000, 3601.02563476562500000000, 4166.15380859375000000000, 0.00000000000000000000, 10215.00000000000000000000, 10229.00000000000000000000, 0.00000000000000000000, 0.00000000000000000000, 0.00000000000000000000, 1483.00000000000000000000, 593.00000000000000000000, 4.00000000000000000000, 0.00000000000000000000, 4.00000000000000000000, 4.00000000000000000000, 4.00000000000000000000, 0.00000000000000000000, 4.00000000000000000000, 4.00000000000000000000, 1.00000000000000000000, 0.00000000000000000000, 4.00000000000000000000, 4.00000000000000000000, 0.00000000000000000000, 0.00000000000000000000, 4.00000000000000000000, 4.00000000000000000000
115.00000000000000000000, 0.00000000000000000000, 4233.84619140625000000000, 4184.10253906250000000000, 4196.41015625000000000000, 4156.41015625000000000000, 4177.94873046875000000000, 4149.23046875000000000000, 4188.20507812500000000000, 4194.87158203125000000000, 4153.84619140625000000000, 4152.30761718750000000000, 4152.82031250000000000000, 4336.92285156250000000000, 3594.87182617187500000000, 4160.51269531250000000000, 0.00000000000000000000, 10215.00000000000000000000, 10229.00000000000000000000, 0.00000000000000000000, 0.00000000000000000000, 0.00000000000000000000, 1483.00000000000000000000, 597.00000000000000000000, 4.00000000000000000000, 0.00000000000000000000, 4.00000000000000000000, 4.00000000000000000000, 4.00000000000000000000, 0.00000000000000000000, 4.00000000000000000000, 4.00000000000000000000, 1.00000000000000000000, 0.00000000000000000000, 4.00000000000000000000, 4.00000000000000000000, 0.00000000000000000000, 0.00000000000000000000, 4.00000000000000000000, 4.00000000000000000000
116.00000000000000000000, 0.00000000000000000000, 4230.25634765625000000000, 4172.30761718750000000000, 4192.82031250000000000000, 4157.94873046875000000000, 4168.71777343750000000000, 4148.20507812500000000000, 4187.69238281250000000000, 4190.25634765625000000000, 4153.84619140625000000000, 4152.82031250000000000000, 4152.30761718750000000000, 4338.46142578125000000000, 3589.74340820312500000000, 4154.87158203125000000000, 0.00000000000000000000, 10215.00000000000000000000, 10229.00000000000000000000, 0.00000000000000000000, 0.00000000000000000000, 0.00000000000000000000, 1483.00000000000000000000, 601.00000000000000000000, 4.00000000000000000000, 0.00000000000000000000, 4.00000000000000000000, 4.00000000000000000000, 4.00000000000000000000, 0.00000000000000000000, 4.00000000000000000000, 4.00000000000000000000, 1.00000000000000000000, 0.00000000000000000000, 4.00000000000000000000, 4.00000000000000000000, 0.00000000000000000000, 0.00000000000000000000, 4.00000000000000000000, 4.00000000000000000000
117.00000000000000000000, 0.00000000000000000000, 4229.23046875000000000000, 4162.05126953125000000000, 4192.82031250000000000000, 4158.46142578125000000000, 4167.17919921875000000000, 4146.66650390625000000000, 4192.30761718750000000000, 4189.74365234375000000000, 4154.87158203125000000000, 4153.33300781250000000000, 4152.82031250000000000000, 4337.94873046875000000000, 3589.23071289062500000000, 4152.82031250000000000000, 0.00000000000000000000, 10215.00000000000000000000, 10229.00000000000000000000, 0.00000000000000000000, 0.00000000000000000000, 0.00000000000000000000, 1483.00000000000000000000, 605.00000000000000000000, 4.00000000000000000000, 0.00000000000000000000, 4.00000000000000000000, 4.00000000000000000000, 4.00000000000000000000, 0.00000000000000000000, 4.00000000000000000000, 4.00000000000000000000, 1.00000000000000000000, 0.00000000000000000000, 4.00000000000000000000, 4.00000000000000000000, 0.00000000000000000000, 0.00000000000000000000, 4.00000000000000000000, 4.00000000000000000000
118.00000000000000000000, 0.00000000000000000000, 4231.28173828125000000000, 4152.82031250000000000000, 4194.35888671875000000000, 4157.43603515625000000000, 4171.28173828125000000000, 4145.64111328125000000000, 4195.89746093750000000000, 4191.28173828125000000000, 4156.41015625000000000000, 4153.33300781250000000000, 4153.84619140625000000000, 4337.94873046875000000000, 3591.28198242187500000000, 4153.33300781250000000000, 0.00000000000000000000, 10215.00000000000000000000, 10229.00000000000000000000, 0.00000000000000000000, 0.00000000000000000000, 0.00000000000000000000, 1484.00000000000000000000, 57.00000000000000000000, 4.00000000000000000000, 0.00000000000000000000, 4.00000000000000000000, 4.00000000000000000000, 4.00000000000000000000, 0.00000000000000000000, 4.00000000000000000000, 4.00000000000000000000, 1.00000000000000000000, 0.00000000000000000000, 4.00000000000000000000, 4.00000000000000000000, 0.00000000000000000000, 0.00000000000000000000, 4.00000000000000000000, 4.00000000000000000000
119.00000000000000000000, 0.00000000000000000000, 4233.84619140625000000000, 4144.61523437500000000000, 4194.87158203125000000000, 4156.41015625000000000000, 4175.89746093750000000000, 4147.17919921875000000000, 4192.82031250000000000000, 4190.25634765625000000000, 4157.94873046875000000000, 4153.33300781250000000000, 4153.84619140625000000000, 4338.97412109375000000000, 3593.33325195312500000000, 4155.38427734375000000000, 0.00000000000000000000, 10215.00000000000000000000, 10229.00000000000000000000, 0.00000000000000000000, 0.00000000000000000000, 0.00000000000000000000, 1484.00000000000000000000, 62.00000000000000000000, 4.00000000000000000000, 0.00000000000000000000, 4.00000000000000000000, 4.00000000000000000000, 4.00000000000000000000, 0.00000000000000000000, 4.00000000000000000000, 4.00000000000000000000, 1.00000000000000000000, 0.00000000000000000000, 4.00000000000000000000, 4.00000000000000000000, 0.00000000000000000000, 0.00000000000000000000, 4.00000000000000000000, 4.00000000000000000000
120.00000000000000000000, 0.00000000000000000000, 4236.41015625000000000000, 4135.89746093750000000000, 4193.84619140625000000000, 4154.87158203125000000000, 4180.00000000000000000000, 4148.71777343750000000000, 4185.12792968750000000000, 4187.17919921875000000000, 4158.97412109375000000000, 4152.82031250000000000000, 4152.30761718750000000000, 4340.51269531250000000000, 3594.35888671875000000000, 4158.97412109375000000000, 0.00000000000000000000, 10215.00000000000000000000, 10229.00000000000000000000, 0.00000000000000000000, 0.00000000000000000000, 0.00000000000000000000, 1484.00000000000000000000, 68.00000000000000000000, 4.00000000000000000000, 0.00000000000000000000, 4.00000000000000000000, 4.00000000000000000000, 4.00000000000000000000, 0.00000000000000000000, 4.00000000000000000000, 4.00000000000000000000, 1.00000000000000000000, 0.00000000000000000000, 4.00000000000000000000, 4.00000000000000000000, 0.00000000000000000000, 0.00000000000000000000, 4.00000000000000000000, 4.00000000000000000000
121.00000000000000000000, 0.00000000000000000000, 4239.48730468750000000000, 4127.69238281250000000000, 4193.84619140625000000000, 4152.82031250000000000000, 4183.58984375000000000000, 4148.71777343750000000000, 4180.00000000000000000000, 4186.15380859375000000000, 4158.46142578125000000000, 4152.30761718750000000000, 4150.25634765625000000000, 4340.51269531250000000000, 3595.89746093750000000000, 4163.07666015625000000000, 0.00000000000000000000, 10216.00000000000000000000, 10226.00000000000000000000, 0.00000000000000000000, 0.00000000000000000000, 0.00000000000000000000, 1484.00000000000000000000, 74.00000000000000000000, 4.00000000000000000000, 0.00000000000000000000, 4.00000000000000000000, 4.00000000000000000000, 4.00000000000000000000, 0.00000000000000000000, 4.00000000000000000000, 4.00000000000000000000, 1.00000000000000000000, 0.00000000000000000000, 4.00000000000000000000, 4.00000000000000000000, 0.00000000000000000000, 0.00000000000000000000, 4.00000000000000000000, 4.00000000000000000000
122.00000000000000000000, 0.00000000000000000000, 4241.53857421875000000000, 4118.97412109375000000000, 4194.87158203125000000000, 4151.28173828125000000000, 4184.61523437500000000000, 4146.66650390625000000000, 4180.00000000000000000000, 4187.69238281250000000000, 4156.41015625000000000000, 4152.30761718750000000000, 4149.23046875000000000000, 4340.00000000000000000000, 3596.41015625000000000000, 4166.15380859375000000000, 0.00000000000000000000, 10216.00000000000000000000, 10226.00000000000000000000, 0.00000000000000000000, 0.00000000000000000000, 0.00000000000000000000, 1484.00000000000000000000, 80.00000000000000000000, 4.00000000000000000000, 0.00000000000000000000, 4.00000000000000000000, 4.00000000000000000000, 4.00000000000000000000, 0.00000000000000000000, 4.00000000000000000000, 4.00000000000000000000, 1.00000000000000000000, 0.00000000000000000000, 4.00000000000000000000, 4.00000000000000000000, 0.00000000000000000000, 0.00000000000000000000, 4.00000000000000000000, 4.00000000000000000000
123.00000000000000000000, 0.00000000000000000000, 4240.51269531250000000000, 4109.23046875000000000000, 4196.41015625000000000000, 4151.28173828125000000000, 4182.05126953125000000000, 4145.64111328125000000000, 4183.07666015625000000000, 4189.23046875000000000000, 4154.35888671875000000000, 4152.82031250000000000000, 4149.74365234375000000000, 4341.02539062500000000000, 3593.84594726562500000000, 4165.64111328125000000000, 0.00000000000000000000, 10216.00000000000000000000, 10226.00000000000000000000, 0.00000000000000000000, 0.00000000000000000000, 0.00000000000000000000, 1484.00000000000000000000, 85.00000000000000000000, 4.00000000000000000000, 0.00000000000000000000, 4.00000000000000000000, 4.00000000000000000000, 4.00000000000000000000, 0.00000000000000000000, 4.00000000000000000000, 4.00000000000000000000, 1.00000000000000000000, 0.00000000000000000000, 4.00000000000000000000, 4.00000000000000000000, 0.00000000000000000000, 0.00000000000000000000, 4.00000000000000000000, 4.00000000000000000000
124.00000000000000000000, 0.00000000000000000000, 4237.43603515625000000000, 4098.97412109375000000000, 4197.43603515625000000000, 4153.84619140625000000000, 4176.92285156250000000000, 4146.66650390625000000000, 4184.10253906250000000000, 4188.20507812500000000000, 4153.33300781250000000000, 4153.33300781250000000000, 4151.28173828125000000000, 4343.58984375000000000000, 3588.71777343750000000000, 4161.53857421875000000000, 0.00000000000000000000, 10216.00000000000000000000, 10226.00000000000000000000, 0.00000000000000000000, 0.00000000000000000000, 0.00000000000000000000, 1484.00000000000000000000, 91.00000000000000000000, 4.00000000000000000000, 0.00000000000000000000, 4.00000000000000000000, 4.00000000000000000000, 4.00000000000000000000, 0.00000000000000000000, 4.00000000000000000000, 4.00000000000000000000, 1.00000000000000000000, 0.00000000000000000000, 4.00000000000000000000, 4.00000000000000000000, 0.00000000000000000000, 0.00000000000000000000, 4.00000000000000000000, 4.00000000000000000000
125.00000000000000000000, 0.00000000000000000000, 4235.38427734375000000000, 4089.74340820312500000000, 4197.94873046875000000000, 4155.89746093750000000000, 4173.33300781250000000000, 4148.71777343750000000000, 4182.56396484375000000000, 4186.15380859375000000000, 4154.35888671875000000000, 4153.33300781250000000000, 4152.82031250000000000000, 4345.64111328125000000000, 3584.10253906250000000000, 4157.43603515625000000000, 0.00000000000000000000, 10216.00000000000000000000, 10224.00000000000000000000, 0.00000000000000000000, 0.00000000000000000000, 0.00000000000000000000, 1484.00000000000000000000, 97.00000000000000000000, 4.00000000000000000000, 0.00000000000000000000, 4.00000000000000000000, 4.00000000000000000000, 4.00000000000000000000, 0.00000000000000000000, 4.00000000000000000000, 4.00000000000000000000, 1.00000000000000000000, 0.00000000000000000000, 4.00000000000000000000, 4.00000000000000000000, 0.00000000000000000000, 0.00000000000000000000, 4.00000000000000000000, 4.00000000000000000000
126.00000000000000000000, 0.00000000000000000000, 4237.43603515625000000000, 4083.07690429687500000000, 4198.97412109375000000000, 4154.35888671875000000000, 4175.38427734375000000000, 4150.76904296875000000000, 4181.02539062500000000000, 4186.15380859375000000000, 4155.38427734375000000000, 4153.33300781250000000000, 4152.82031250000000000000, 4344.61523437500000000000, 3585.12817382812500000000, 4158.46142578125000000000, 0.00000000000000000000, 10216.00000000000000000000, 10224.00000000000000000000, 0.00000000000000000000, 0.00000000000000000000, 0.00000000000000000000, 1484.00000000000000000000, 103.00000000000000000000, 4.00000000000000000000, 0.00000000000000000000, 4.00000000000000000000, 4.00000000000000000000, 4.00000000000000000000, 0.00000000000000000000, 4.00000000000000000000, 4.00000000000000000000, 1.00000000000000000000, 0.00000000000000000000, 4.00000000000000000000, 4.00000000000000000000, 0.00000000000000000000, 0.00000000000000000000, 4.00000000000000000000, 4.00000000000000000000
127.00000000000000000000, 0.00000000000000000000, 4241.02539062500000000000, 4079.48706054687500000000, 4198.46142578125000000000, 4150.25634765625000000000, 4182.05126953125000000000, 4150.25634765625000000000, 4181.02539062500000000000, 4189.23046875000000000000, 4156.41015625000000000000, 4152.82031250000000000000, 4152.30761718750000000000, 4340.51269531250000000000, 3590.76904296875000000000, 4162.05126953125000000000, 0.00000000000000000000, 10216.00000000000000000000, 10224.00000000000000000000, 0.00000000000000000000, 0.00000000000000000000, 0.00000000000000000000, 1484.00000000000000000000, 108.00000000000000000000, 4.00000000000000000000, 0.00000000000000000000, 4.00000000000000000000, 4.00000000000000000000, 4.00000000000000000000, 0.00000000000000000000, 4.00000000000000000000, 4.00000000000000000000, 1.00000000000000000000, 0.00000000000000000000, 4.00000000000000000000, 4.00000000000000000000, 0.00000000000000000000, 0.00000000000000000000, 4.00000000000000000000, 4.00000000000000000000
128.00000000000000000000, 0.00000000000000000000, 4241.53857421875000000000, 4075.89721679687500000000, 4194.87158203125000000000, 4147.17919921875000000000, 4185.64111328125000000000, 4149.74365234375000000000, 4180.51269531250000000000, 4192.82031250000000000000, 4156.41015625000000000000, 4152.82031250000000000000, 4151.28173828125000000000, 4336.92285156250000000000, 3594.87182617187500000000, 4163.07666015625000000000, 3101.00000000000000000000, 10216.00000000000000000000, 10224.00000000000000000000, 0.00000000000000000000, 0.00000000000000000000, 0.00000000000000000000, 1484.00000000000000000000, 114.00000000000000000000, 4.00000000000000000000, 0.00000000000000000000, 4.00000000000000000000, 4.00000000000000000000, 4.00000000000000000000, 0.00000000000000000000, 4.00000000000000000000, 4.00000000000000000000, 1.00000000000000000000, 0.00000000000000000000, 4.00000000000000000000, 4.00000000000000000000, 0.00000000000000000000, 0.00000000000000000000, 4.00000000000000000000, 4.00000000000000000000
